COUNTER, AF3, T7, Pz, T8, AF4, MARKERS['Blank','Image'], TICK, ContactQuality
9.300000000000000000e+01, 4.228204999999999927e+03, 4.178462000000000444e+03, 4.113845999999999549e+03, 4.181537999999999556e+03, 4.195896999999999935e+03, 1.000000000000000000e+00, 0.000000000000000000e+00, 1.000000000000000000e+02
9.400000000000000000e+01, 4.237948999999999614e+03, 4.186667000000000371e+03, 4.115896999999999935e+03, 4.172307999999999993e+03, 4.208204999999999927e+03, 1.000000000000000000e+00, 0.000000000000000000e+00, 1.000000000000000000e+02
9.500000000000000000e+01, 4.234872000000000298e+03, 4.192820999999999913e+03, 4.117435999999999694e+03, 4.182051000000000386e+03, 4.203077000000000226e+03, 1.000000000000000000e+00, 0.000000000000000000e+00, 1.000000000000000000e+02
9.600000000000000000e+01, 4.223590000000000146e+03, 4.186667000000000371e+03, 4.104614999999999782e+03, 4.186667000000000371e+03, 4.186154000000000451e+03, 1.000000000000000000e+00, 0.000000000000000000e+00, 1.000000000000000000e+02
9.700000000000000000e+01, 4.214359000000000378e+03, 4.184614999999999782e+03, 4.097435999999999694e+03, 4.169230999999999767e+03, 4.175385000000000218e+03, 1.000000000000000000e+00, 0.000000000000000000e+00, 1.000000000000000000e+02
9.800000000000000000e+01, 4.220000000000000000e+03, 4.186667000000000371e+03, 4.107692000000000007e+03, 4.164614999999999782e+03, 4.186667000000000371e+03, 1.000000000000000000e+00, 0.000000000000000000e+00, 1.000000000000000000e+02
9.900000000000000000e+01, 4.226667000000000371e+03, 4.186667000000000371e+03, 4.110256000000000313e+03, 4.185640999999999622e+03, 4.200000000000000000e+03, 1.000000000000000000e+00, 0.000000000000000000e+00, 1.000000000000000000e+02
1.000000000000000000e+02, 4.222051000000000386e+03, 4.184614999999999782e+03, 4.101025999999999840e+03, 4.181025999999999840e+03, 4.190769000000000233e+03, 1.000000000000000000e+00, 0.000000000000000000e+00, 1.000000000000000000e+02
1.010000000000000000e+02, 4.226667000000000371e+03, 4.186667000000000371e+03, 4.099487000000000080e+03, 4.157948999999999614e+03, 4.194872000000000298e+03, 1.000000000000000000e+00, 0.000000000000000000e+00, 1.000000000000000000e+02
1.020000000000000000e+02, 4.220512999999999920e+03, 4.192820999999999913e+03, 4.097435999999999694e+03, 4.166667000000000371e+03, 4.193332999999999629e+03, 1.000000000000000000e+00, 0.000000000000000000e+00, 1.000000000000000000e+02
1.030000000000000000e+02, 4.214359000000000378e+03, 4.186667000000000371e+03, 4.093333000000000084e+03, 4.185640999999999622e+03, 4.181537999999999556e+03, 1.000000000000000000e+00, 0.000000000000000000e+00, 1.000000000000000000e+02
1.040000000000000000e+02, 4.219487000000000080e+03, 4.170256000000000313e+03, 4.085128000000000156e+03, 4.175385000000000218e+03, 4.184103000000000065e+03, 1.000000000000000000e+00, 0.000000000000000000e+00, 1.000000000000000000e+02
1.050000000000000000e+02, 4.212820999999999913e+03, 4.172307999999999993e+03, 4.083077000000000226e+03, 4.155385000000000218e+03, 4.180000000000000000e+03, 1.000000000000000000e+00, 0.000000000000000000e+00, 1.000000000000000000e+02
1.060000000000000000e+02, 4.208204999999999927e+03, 4.180512999999999920e+03, 4.088717999999999847e+03, 4.153845999999999549e+03, 4.178462000000000444e+03, 1.000000000000000000e+00, 0.000000000000000000e+00, 1.000000000000000000e+02
1.070000000000000000e+02, 4.207692000000000007e+03, 4.176409999999999854e+03, 4.084103000000000065e+03, 4.163590000000000146e+03, 4.172820999999999913e+03, 1.000000000000000000e+00, 0.000000000000000000e+00, 1.000000000000000000e+02
1.080000000000000000e+02, 4.215385000000000218e+03, 4.174359000000000378e+03, 4.089744000000000142e+03, 4.172820999999999913e+03, 4.177435999999999694e+03, 1.000000000000000000e+00, 0.000000000000000000e+00, 1.000000000000000000e+02
1.090000000000000000e+02, 4.224103000000000065e+03, 4.176409999999999854e+03, 4.103590000000000146e+03, 4.175385000000000218e+03, 4.194872000000000298e+03, 1.000000000000000000e+00, 0.000000000000000000e+00, 1.000000000000000000e+02
1.100000000000000000e+02, 4.208717999999999847e+03, 4.170256000000000313e+03, 4.093333000000000084e+03, 4.179487000000000080e+03, 4.182564000000000306e+03, 1.000000000000000000e+00, 0.000000000000000000e+00, 1.000000000000000000e+02
1.110000000000000000e+02, 4.207179000000000087e+03, 4.178462000000000444e+03, 4.082050999999999931e+03, 4.185127999999999702e+03, 4.174872000000000298e+03, 1.000000000000000000e+00, 0.000000000000000000e+00, 1.000000000000000000e+02
1.120000000000000000e+02, 4.227179000000000087e+03, 4.194872000000000298e+03, 4.098462000000000444e+03, 4.181025999999999840e+03, 4.190769000000000233e+03, 1.000000000000000000e+00, 0.000000000000000000e+00, 1.000000000000000000e+02
1.130000000000000000e+02, 4.239487000000000080e+03, 4.184614999999999782e+03, 4.117435999999999694e+03, 4.175896999999999935e+03, 4.199487000000000080e+03, 1.000000000000000000e+00, 0.000000000000000000e+00, 1.000000000000000000e+02
1.140000000000000000e+02, 4.232820999999999913e+03, 4.170256000000000313e+03, 4.102564000000000306e+03, 4.177948999999999614e+03, 4.187692000000000007e+03, 1.000000000000000000e+00, 0.000000000000000000e+00, 1.000000000000000000e+02
1.150000000000000000e+02, 4.210256000000000313e+03, 4.180512999999999920e+03, 4.073846000000000004e+03, 4.182051000000000386e+03, 4.164103000000000065e+03, 1.000000000000000000e+00, 0.000000000000000000e+00, 1.000000000000000000e+02
1.160000000000000000e+02, 4.215385000000000218e+03, 4.184614999999999782e+03, 4.084103000000000065e+03, 4.185640999999999622e+03, 4.176409999999999854e+03, 1.000000000000000000e+00, 0.000000000000000000e+00, 1.000000000000000000e+02
1.170000000000000000e+02, 4.227692000000000007e+03, 4.176409999999999854e+03, 4.097435999999999694e+03, 4.186667000000000371e+03, 4.188717999999999847e+03, 1.000000000000000000e+00, 0.000000000000000000e+00, 1.000000000000000000e+02
1.180000000000000000e+02, 4.217948999999999614e+03, 4.182564000000000306e+03, 4.086153999999999996e+03, 4.177435999999999694e+03, 4.171795000000000073e+03, 1.000000000000000000e+00, 0.000000000000000000e+00, 1.000000000000000000e+02
1.190000000000000000e+02, 4.228717999999999847e+03, 4.190769000000000233e+03, 4.092307999999999993e+03, 4.167692000000000007e+03, 4.181025999999999840e+03, 1.000000000000000000e+00, 0.000000000000000000e+00, 1.000000000000000000e+02
1.200000000000000000e+02, 4.247692000000000007e+03, 4.192820999999999913e+03, 4.109230999999999767e+03, 4.180000000000000000e+03, 4.202051000000000386e+03, 1.000000000000000000e+00, 0.000000000000000000e+00, 1.000000000000000000e+02
1.210000000000000000e+02, 4.253332999999999629e+03, 4.203077000000000226e+03, 4.107179000000000087e+03, 4.201537999999999556e+03, 4.210256000000000313e+03, 1.000000000000000000e+00, 0.000000000000000000e+00, 1.000000000000000000e+02
1.220000000000000000e+02, 4.248717999999999847e+03, 4.196922999999999774e+03, 4.095896999999999935e+03, 4.200512999999999920e+03, 4.205127999999999702e+03, 1.000000000000000000e+00, 0.000000000000000000e+00, 1.000000000000000000e+02
1.230000000000000000e+02, 4.245640999999999622e+03, 4.186667000000000371e+03, 4.098974000000000160e+03, 4.193845999999999549e+03, 4.195896999999999935e+03, 1.000000000000000000e+00, 0.000000000000000000e+00, 1.000000000000000000e+02
1.240000000000000000e+02, 4.246667000000000371e+03, 4.203077000000000226e+03, 4.104103000000000065e+03, 4.195385000000000218e+03, 4.198462000000000444e+03, 1.000000000000000000e+00, 0.000000000000000000e+00, 1.000000000000000000e+02
1.250000000000000000e+02, 4.232820999999999913e+03, 4.201025999999999840e+03, 4.092307999999999993e+03, 4.183590000000000146e+03, 4.189230999999999767e+03, 1.000000000000000000e+00, 0.000000000000000000e+00, 1.000000000000000000e+02
1.260000000000000000e+02, 4.228204999999999927e+03, 4.180512999999999920e+03, 4.083590000000000146e+03, 4.185640999999999622e+03, 4.187179000000000087e+03, 1.000000000000000000e+00, 0.000000000000000000e+00, 1.000000000000000000e+02
1.270000000000000000e+02, 4.230769000000000233e+03, 4.184614999999999782e+03, 4.087179000000000087e+03, 4.208717999999999847e+03, 4.191282000000000153e+03, 1.000000000000000000e+00, 0.000000000000000000e+00, 1.000000000000000000e+02
0.000000000000000000e+00, 4.218974000000000160e+03, 4.188717999999999847e+03, 4.087692000000000007e+03, 4.198462000000000444e+03, 4.182564000000000306e+03, 1.000000000000000000e+00, 0.000000000000000000e+00, 1.000000000000000000e+02
1.000000000000000000e+00, 4.214359000000000378e+03, 4.182564000000000306e+03, 4.084103000000000065e+03, 4.168717999999999847e+03, 4.183590000000000146e+03, 1.000000000000000000e+00, 0.000000000000000000e+00, 1.000000000000000000e+02
2.000000000000000000e+00, 4.214359000000000378e+03, 4.186667000000000371e+03, 4.088204999999999927e+03, 4.181025999999999840e+03, 4.181025999999999840e+03, 1.000000000000000000e+00, 0.000000000000000000e+00, 1.000000000000000000e+02
3.000000000000000000e+00, 4.226154000000000451e+03, 4.198974000000000160e+03, 4.101025999999999840e+03, 4.210769000000000233e+03, 4.186667000000000371e+03, 1.000000000000000000e+00, 0.000000000000000000e+00, 1.000000000000000000e+02
4.000000000000000000e+00, 4.235385000000000218e+03, 4.205127999999999702e+03, 4.102051000000000386e+03, 4.198974000000000160e+03, 4.194872000000000298e+03, 1.000000000000000000e+00, 0.000000000000000000e+00, 1.000000000000000000e+02
5.000000000000000000e+00, 4.226154000000000451e+03, 4.205127999999999702e+03, 4.088204999999999927e+03, 4.181537999999999556e+03, 4.183590000000000146e+03, 1.000000000000000000e+00, 0.000000000000000000e+00, 1.000000000000000000e+02
6.000000000000000000e+00, 4.229230999999999767e+03, 4.190769000000000233e+03, 4.085641000000000076e+03, 4.197948999999999614e+03, 4.188204999999999927e+03, 1.000000000000000000e+00, 0.000000000000000000e+00, 1.000000000000000000e+02
7.000000000000000000e+00, 4.232307999999999993e+03, 4.176409999999999854e+03, 4.086153999999999996e+03, 4.207692000000000007e+03, 4.192307999999999993e+03, 1.000000000000000000e+00, 0.000000000000000000e+00, 1.000000000000000000e+02
8.000000000000000000e+00, 4.232820999999999913e+03, 4.184614999999999782e+03, 4.085641000000000076e+03, 4.197948999999999614e+03, 4.187692000000000007e+03, 1.000000000000000000e+00, 0.000000000000000000e+00, 1.000000000000000000e+02
9.000000000000000000e+00, 4.234872000000000298e+03, 4.188717999999999847e+03, 4.085128000000000156e+03, 4.201537999999999556e+03, 4.188717999999999847e+03, 1.000000000000000000e+00, 0.000000000000000000e+00, 1.000000000000000000e+02
1.000000000000000000e+01, 4.223590000000000146e+03, 4.180512999999999920e+03, 4.080000000000000000e+03, 4.194872000000000298e+03, 4.178974000000000160e+03, 1.000000000000000000e+00, 0.000000000000000000e+00, 1.000000000000000000e+02
1.100000000000000000e+01, 4.218462000000000444e+03, 4.178462000000000444e+03, 4.077949000000000069e+03, 4.174359000000000378e+03, 4.180000000000000000e+03, 1.000000000000000000e+00, 0.000000000000000000e+00, 1.000000000000000000e+02
1.200000000000000000e+01, 4.221025999999999840e+03, 4.180512999999999920e+03, 4.085641000000000076e+03, 4.186154000000000451e+03, 4.183077000000000226e+03, 1.000000000000000000e+00, 0.000000000000000000e+00, 1.000000000000000000e+02
1.300000000000000000e+01, 4.238462000000000444e+03, 4.188717999999999847e+03, 4.100512999999999920e+03, 4.210256000000000313e+03, 4.193845999999999549e+03, 1.000000000000000000e+00, 0.000000000000000000e+00, 1.000000000000000000e+02
1.400000000000000000e+01, 4.242051000000000386e+03, 4.194872000000000298e+03, 4.096922999999999774e+03, 4.203590000000000146e+03, 4.201537999999999556e+03, 1.000000000000000000e+00, 0.000000000000000000e+00, 1.000000000000000000e+02
1.500000000000000000e+01, 4.210769000000000233e+03, 4.182564000000000306e+03, 4.082563999999999851e+03, 4.184103000000000065e+03, 4.177948999999999614e+03, 1.000000000000000000e+00, 0.000000000000000000e+00, 1.000000000000000000e+02
1.600000000000000000e+01, 4.212820999999999913e+03, 4.178462000000000444e+03, 4.090768999999999778e+03, 4.177948999999999614e+03, 4.184614999999999782e+03, 1.000000000000000000e+00, 0.000000000000000000e+00, 1.000000000000000000e+02
1.700000000000000000e+01, 4.243590000000000146e+03, 4.201025999999999840e+03, 4.104103000000000065e+03, 4.188717999999999847e+03, 4.216922999999999774e+03, 1.000000000000000000e+00, 0.000000000000000000e+00, 1.000000000000000000e+02
1.800000000000000000e+01, 4.262564000000000306e+03, 4.203077000000000226e+03, 4.104103000000000065e+03, 4.210256000000000313e+03, 4.231795000000000073e+03, 1.000000000000000000e+00, 0.000000000000000000e+00, 1.000000000000000000e+02
1.900000000000000000e+01, 4.276922999999999774e+03, 4.170256000000000313e+03, 4.101537999999999556e+03, 4.218462000000000444e+03, 4.247179000000000087e+03, 1.000000000000000000e+00, 0.000000000000000000e+00, 1.000000000000000000e+02
2.000000000000000000e+01, 4.277948999999999614e+03, 4.168204999999999927e+03, 4.103077000000000226e+03, 4.211795000000000073e+03, 4.260000000000000000e+03, 1.000000000000000000e+00, 0.000000000000000000e+00, 1.000000000000000000e+02
2.100000000000000000e+01, 4.276409999999999854e+03, 4.190769000000000233e+03, 4.109743999999999687e+03, 4.222564000000000306e+03, 4.262564000000000306e+03, 1.000000000000000000e+00, 0.000000000000000000e+00, 1.000000000000000000e+02
2.200000000000000000e+01, 4.277435999999999694e+03, 4.190769000000000233e+03, 4.109230999999999767e+03, 4.243590000000000146e+03, 4.249743999999999687e+03, 1.000000000000000000e+00, 0.000000000000000000e+00, 1.000000000000000000e+02
2.300000000000000000e+01, 4.272307999999999993e+03, 4.178462000000000444e+03, 4.105640999999999622e+03, 4.231795000000000073e+03, 4.238974000000000160e+03, 1.000000000000000000e+00, 0.000000000000000000e+00, 1.000000000000000000e+02
2.400000000000000000e+01, 4.265640999999999622e+03, 4.182564000000000306e+03, 4.108204999999999927e+03, 4.205127999999999702e+03, 4.246667000000000371e+03, 1.000000000000000000e+00, 0.000000000000000000e+00, 1.000000000000000000e+02
2.500000000000000000e+01, 4.261025999999999840e+03, 4.194872000000000298e+03, 4.112820999999999913e+03, 4.209230999999999767e+03, 4.246667000000000371e+03, 1.000000000000000000e+00, 0.000000000000000000e+00, 1.000000000000000000e+02
2.600000000000000000e+01, 4.263077000000000226e+03, 4.196922999999999774e+03, 4.116922999999999774e+03, 4.227692000000000007e+03, 4.241025999999999840e+03, 1.000000000000000000e+00, 0.000000000000000000e+00, 1.000000000000000000e+02
2.700000000000000000e+01, 4.258462000000000444e+03, 4.182564000000000306e+03, 4.114359000000000378e+03, 4.215896999999999935e+03, 4.227179000000000087e+03, 1.000000000000000000e+00, 0.000000000000000000e+00, 1.000000000000000000e+02
2.800000000000000000e+01, 4.249743999999999687e+03, 4.168204999999999927e+03, 4.114359000000000378e+03, 4.195896999999999935e+03, 4.217435999999999694e+03, 1.000000000000000000e+00, 0.000000000000000000e+00, 1.000000000000000000e+02
2.900000000000000000e+01, 4.251795000000000073e+03, 4.182564000000000306e+03, 4.122051000000000386e+03, 4.200000000000000000e+03, 4.226667000000000371e+03, 1.000000000000000000e+00, 0.000000000000000000e+00, 1.000000000000000000e+02
3.000000000000000000e+01, 4.251282000000000153e+03, 4.203077000000000226e+03, 4.127179000000000087e+03, 4.203590000000000146e+03, 4.220000000000000000e+03, 1.000000000000000000e+00, 0.000000000000000000e+00, 1.000000000000000000e+02
3.100000000000000000e+01, 4.257435999999999694e+03, 4.198974000000000160e+03, 4.136922999999999774e+03, 4.201025999999999840e+03, 4.224103000000000065e+03, 1.000000000000000000e+00, 0.000000000000000000e+00, 1.000000000000000000e+02
3.200000000000000000e+01, 4.263590000000000146e+03, 4.192820999999999913e+03, 4.142564000000000306e+03, 4.214359000000000378e+03, 4.236922999999999774e+03, 1.000000000000000000e+00, 0.000000000000000000e+00, 1.000000000000000000e+02
3.300000000000000000e+01, 4.258974000000000160e+03, 4.201025999999999840e+03, 4.142564000000000306e+03, 4.227179000000000087e+03, 4.227179000000000087e+03, 1.000000000000000000e+00, 0.000000000000000000e+00, 1.000000000000000000e+02
3.400000000000000000e+01, 4.252820999999999913e+03, 4.209230999999999767e+03, 4.145640999999999622e+03, 4.220512999999999920e+03, 4.223077000000000226e+03, 1.000000000000000000e+00, 0.000000000000000000e+00, 1.000000000000000000e+02
3.500000000000000000e+01, 4.255896999999999935e+03, 4.209230999999999767e+03, 4.143077000000000226e+03, 4.225127999999999702e+03, 4.234359000000000378e+03, 1.000000000000000000e+00, 0.000000000000000000e+00, 1.000000000000000000e+02
3.600000000000000000e+01, 4.290256000000000313e+03, 4.201025999999999840e+03, 4.144614999999999782e+03, 4.247179000000000087e+03, 4.263590000000000146e+03, 1.000000000000000000e+00, 0.000000000000000000e+00, 1.000000000000000000e+02
3.700000000000000000e+01, 4.311282000000000153e+03, 4.198974000000000160e+03, 4.144103000000000065e+03, 4.257948999999999614e+03, 4.281025999999999840e+03, 1.000000000000000000e+00, 0.000000000000000000e+00, 1.000000000000000000e+02
3.800000000000000000e+01, 4.292820999999999913e+03, 4.196922999999999774e+03, 4.130256000000000313e+03, 4.251795000000000073e+03, 4.272307999999999993e+03, 1.000000000000000000e+00, 0.000000000000000000e+00, 1.000000000000000000e+02
3.900000000000000000e+01, 4.289230999999999767e+03, 4.192820999999999913e+03, 4.122564000000000306e+03, 4.239487000000000080e+03, 4.276409999999999854e+03, 1.000000000000000000e+00, 0.000000000000000000e+00, 1.000000000000000000e+02
4.000000000000000000e+01, 4.282564000000000306e+03, 4.192820999999999913e+03, 4.126154000000000451e+03, 4.230769000000000233e+03, 4.265640999999999622e+03, 1.000000000000000000e+00, 0.000000000000000000e+00, 1.000000000000000000e+02
4.100000000000000000e+01, 4.271282000000000153e+03, 4.194872000000000298e+03, 4.125127999999999702e+03, 4.234359000000000378e+03, 4.251795000000000073e+03, 1.000000000000000000e+00, 0.000000000000000000e+00, 1.000000000000000000e+02
4.200000000000000000e+01, 4.274359000000000378e+03, 4.182564000000000306e+03, 4.115896999999999935e+03, 4.248204999999999927e+03, 4.255385000000000218e+03, 1.000000000000000000e+00, 0.000000000000000000e+00, 1.000000000000000000e+02
4.300000000000000000e+01, 4.273332999999999629e+03, 4.174359000000000378e+03, 4.114359000000000378e+03, 4.241537999999999556e+03, 4.253332999999999629e+03, 1.000000000000000000e+00, 0.000000000000000000e+00, 1.000000000000000000e+02
4.400000000000000000e+01, 4.270769000000000233e+03, 4.196922999999999774e+03, 4.124103000000000065e+03, 4.230256000000000313e+03, 4.259487000000000080e+03, 1.000000000000000000e+00, 0.000000000000000000e+00, 1.000000000000000000e+02
4.500000000000000000e+01, 4.257948999999999614e+03, 4.205127999999999702e+03, 4.126154000000000451e+03, 4.242051000000000386e+03, 4.255896999999999935e+03, 1.000000000000000000e+00, 0.000000000000000000e+00, 1.000000000000000000e+02
4.600000000000000000e+01, 4.252307999999999993e+03, 4.190769000000000233e+03, 4.125127999999999702e+03, 4.243077000000000226e+03, 4.244103000000000065e+03, 1.000000000000000000e+00, 0.000000000000000000e+00, 1.000000000000000000e+02
4.700000000000000000e+01, 4.259487000000000080e+03, 4.182564000000000306e+03, 4.130256000000000313e+03, 4.220000000000000000e+03, 4.244614999999999782e+03, 1.000000000000000000e+00, 0.000000000000000000e+00, 1.000000000000000000e+02
4.800000000000000000e+01, 4.255896999999999935e+03, 4.186667000000000371e+03, 4.138462000000000444e+03, 4.214872000000000298e+03, 4.244614999999999782e+03, 1.000000000000000000e+00, 0.000000000000000000e+00, 1.000000000000000000e+02
4.900000000000000000e+01, 4.254359000000000378e+03, 4.190769000000000233e+03, 4.141025999999999840e+03, 4.239487000000000080e+03, 4.248204999999999927e+03, 1.000000000000000000e+00, 0.000000000000000000e+00, 1.000000000000000000e+02
5.000000000000000000e+01, 4.241537999999999556e+03, 4.178462000000000444e+03, 4.126667000000000371e+03, 4.243590000000000146e+03, 4.230769000000000233e+03, 1.000000000000000000e+00, 0.000000000000000000e+00, 1.000000000000000000e+02
5.100000000000000000e+01, 4.233332999999999629e+03, 4.168204999999999927e+03, 4.126154000000000451e+03, 4.224614999999999782e+03, 4.223590000000000146e+03, 1.000000000000000000e+00, 0.000000000000000000e+00, 1.000000000000000000e+02
5.200000000000000000e+01, 4.246667000000000371e+03, 4.182564000000000306e+03, 4.140512999999999920e+03, 4.228204999999999927e+03, 4.241537999999999556e+03, 1.000000000000000000e+00, 0.000000000000000000e+00, 1.000000000000000000e+02
5.300000000000000000e+01, 4.250256000000000313e+03, 4.198974000000000160e+03, 4.139487000000000080e+03, 4.248717999999999847e+03, 4.240000000000000000e+03, 1.000000000000000000e+00, 0.000000000000000000e+00, 1.000000000000000000e+02
5.400000000000000000e+01, 4.251795000000000073e+03, 4.190769000000000233e+03, 4.134359000000000378e+03, 4.243077000000000226e+03, 4.237948999999999614e+03, 1.000000000000000000e+00, 0.000000000000000000e+00, 1.000000000000000000e+02
5.500000000000000000e+01, 4.248717999999999847e+03, 4.184614999999999782e+03, 4.122564000000000306e+03, 4.216922999999999774e+03, 4.232307999999999993e+03, 1.000000000000000000e+00, 0.000000000000000000e+00, 1.000000000000000000e+02
5.600000000000000000e+01, 4.246667000000000371e+03, 4.194872000000000298e+03, 4.110769000000000233e+03, 4.222564000000000306e+03, 4.232820999999999913e+03, 1.000000000000000000e+00, 0.000000000000000000e+00, 1.000000000000000000e+02
5.700000000000000000e+01, 4.261537999999999556e+03, 4.194872000000000298e+03, 4.114359000000000378e+03, 4.248717999999999847e+03, 4.253332999999999629e+03, 1.000000000000000000e+00, 0.000000000000000000e+00, 1.000000000000000000e+02
5.800000000000000000e+01, 4.255385000000000218e+03, 4.180512999999999920e+03, 4.115896999999999935e+03, 4.241025999999999840e+03, 4.244614999999999782e+03, 1.000000000000000000e+00, 0.000000000000000000e+00, 1.000000000000000000e+02
5.900000000000000000e+01, 4.239487000000000080e+03, 4.162051000000000386e+03, 4.115385000000000218e+03, 4.232307999999999993e+03, 4.229230999999999767e+03, 1.000000000000000000e+00, 0.000000000000000000e+00, 1.000000000000000000e+02
6.000000000000000000e+01, 4.234359000000000378e+03, 4.168204999999999927e+03, 4.119487000000000080e+03, 4.240512999999999920e+03, 4.227692000000000007e+03, 1.000000000000000000e+00, 0.000000000000000000e+00, 1.000000000000000000e+02
6.100000000000000000e+01, 4.236922999999999774e+03, 4.178462000000000444e+03, 4.119487000000000080e+03, 4.221025999999999840e+03, 4.227179000000000087e+03, 1.000000000000000000e+00, 0.000000000000000000e+00, 1.000000000000000000e+02
6.200000000000000000e+01, 4.242051000000000386e+03, 4.174359000000000378e+03, 4.112307999999999993e+03, 4.209743999999999687e+03, 4.230256000000000313e+03, 1.000000000000000000e+00, 0.000000000000000000e+00, 1.000000000000000000e+02
6.300000000000000000e+01, 4.237948999999999614e+03, 4.176409999999999854e+03, 4.107692000000000007e+03, 4.240512999999999920e+03, 4.227179000000000087e+03, 1.000000000000000000e+00, 0.000000000000000000e+00, 1.000000000000000000e+02
6.400000000000000000e+01, 4.239487000000000080e+03, 4.186667000000000371e+03, 4.116409999999999854e+03, 4.253332999999999629e+03, 4.231795000000000073e+03, 1.000000000000000000e+00, 0.000000000000000000e+00, 1.000000000000000000e+02
6.500000000000000000e+01, 4.235385000000000218e+03, 4.174359000000000378e+03, 4.111795000000000073e+03, 4.234359000000000378e+03, 4.233845999999999549e+03, 1.000000000000000000e+00, 0.000000000000000000e+00, 1.000000000000000000e+02
6.600000000000000000e+01, 4.229230999999999767e+03, 4.157948999999999614e+03, 4.100512999999999920e+03, 4.225640999999999622e+03, 4.232820999999999913e+03, 1.000000000000000000e+00, 0.000000000000000000e+00, 1.000000000000000000e+02
6.700000000000000000e+01, 4.239487000000000080e+03, 4.170256000000000313e+03, 4.111282000000000153e+03, 4.219487000000000080e+03, 4.245127999999999702e+03, 1.000000000000000000e+00, 0.000000000000000000e+00, 1.000000000000000000e+02
6.800000000000000000e+01, 4.240000000000000000e+03, 4.184614999999999782e+03, 4.123077000000000226e+03, 4.215896999999999935e+03, 4.234872000000000298e+03, 1.000000000000000000e+00, 0.000000000000000000e+00, 1.000000000000000000e+02
6.900000000000000000e+01, 4.241537999999999556e+03, 4.180512999999999920e+03, 4.117948999999999614e+03, 4.237948999999999614e+03, 4.225127999999999702e+03, 1.000000000000000000e+00, 0.000000000000000000e+00, 1.000000000000000000e+02
7.000000000000000000e+01, 4.245640999999999622e+03, 4.180512999999999920e+03, 4.112307999999999993e+03, 4.252307999999999993e+03, 4.233332999999999629e+03, 1.000000000000000000e+00, 0.000000000000000000e+00, 1.000000000000000000e+02
7.100000000000000000e+01, 4.248717999999999847e+03, 4.194872000000000298e+03, 4.122051000000000386e+03, 4.236922999999999774e+03, 4.240000000000000000e+03, 1.000000000000000000e+00, 0.000000000000000000e+00, 1.000000000000000000e+02
7.200000000000000000e+01, 4.258462000000000444e+03, 4.190769000000000233e+03, 4.127692000000000007e+03, 4.230769000000000233e+03, 4.250769000000000233e+03, 1.000000000000000000e+00, 0.000000000000000000e+00, 1.000000000000000000e+02
7.300000000000000000e+01, 4.250769000000000233e+03, 4.170256000000000313e+03, 4.110769000000000233e+03, 4.240512999999999920e+03, 4.242051000000000386e+03, 1.000000000000000000e+00, 0.000000000000000000e+00, 1.000000000000000000e+02
7.400000000000000000e+01, 4.237948999999999614e+03, 4.176409999999999854e+03, 4.101025999999999840e+03, 4.236409999999999854e+03, 4.229743999999999687e+03, 1.000000000000000000e+00, 0.000000000000000000e+00, 1.000000000000000000e+02
7.500000000000000000e+01, 4.240512999999999920e+03, 4.196922999999999774e+03, 4.112307999999999993e+03, 4.233332999999999629e+03, 4.232820999999999913e+03, 1.000000000000000000e+00, 0.000000000000000000e+00, 1.000000000000000000e+02
7.600000000000000000e+01, 4.247692000000000007e+03, 4.198974000000000160e+03, 4.121025999999999840e+03, 4.232820999999999913e+03, 4.239487000000000080e+03, 1.000000000000000000e+00, 0.000000000000000000e+00, 1.000000000000000000e+02
7.700000000000000000e+01, 4.255385000000000218e+03, 4.186667000000000371e+03, 4.117948999999999614e+03, 4.222051000000000386e+03, 4.246154000000000451e+03, 1.000000000000000000e+00, 0.000000000000000000e+00, 1.000000000000000000e+02
7.800000000000000000e+01, 4.244103000000000065e+03, 4.182564000000000306e+03, 4.106154000000000451e+03, 4.223590000000000146e+03, 4.229230999999999767e+03, 1.000000000000000000e+00, 0.000000000000000000e+00, 1.000000000000000000e+02
7.900000000000000000e+01, 4.233845999999999549e+03, 4.180512999999999920e+03, 4.100000000000000000e+03, 4.229230999999999767e+03, 4.220000000000000000e+03, 1.000000000000000000e+00, 0.000000000000000000e+00, 1.000000000000000000e+02
8.000000000000000000e+01, 4.240512999999999920e+03, 4.174359000000000378e+03, 4.099487000000000080e+03, 4.224614999999999782e+03, 4.233845999999999549e+03, 1.000000000000000000e+00, 0.000000000000000000e+00, 1.000000000000000000e+02
8.100000000000000000e+01, 4.246667000000000371e+03, 4.172307999999999993e+03, 4.106154000000000451e+03, 4.232307999999999993e+03, 4.242051000000000386e+03, 1.000000000000000000e+00, 0.000000000000000000e+00, 1.000000000000000000e+02
8.200000000000000000e+01, 4.255896999999999935e+03, 4.182564000000000306e+03, 4.114359000000000378e+03, 4.248204999999999927e+03, 4.251795000000000073e+03, 1.000000000000000000e+00, 0.000000000000000000e+00, 1.000000000000000000e+02
8.300000000000000000e+01, 4.252820999999999913e+03, 4.186667000000000371e+03, 4.105640999999999622e+03, 4.243590000000000146e+03, 4.242051000000000386e+03, 1.000000000000000000e+00, 0.000000000000000000e+00, 1.000000000000000000e+02
8.400000000000000000e+01, 4.245127999999999702e+03, 4.170256000000000313e+03, 4.096409999999999854e+03, 4.236409999999999854e+03, 4.224103000000000065e+03, 1.000000000000000000e+00, 0.000000000000000000e+00, 1.000000000000000000e+02
8.500000000000000000e+01, 4.246154000000000451e+03, 4.172307999999999993e+03, 4.102051000000000386e+03, 4.242051000000000386e+03, 4.227179000000000087e+03, 1.000000000000000000e+00, 0.000000000000000000e+00, 1.000000000000000000e+02
8.600000000000000000e+01, 4.238974000000000160e+03, 4.182564000000000306e+03, 4.106154000000000451e+03, 4.229230999999999767e+03, 4.228717999999999847e+03, 1.000000000000000000e+00, 0.000000000000000000e+00, 1.000000000000000000e+02
8.700000000000000000e+01, 4.235385000000000218e+03, 4.174359000000000378e+03, 4.101025999999999840e+03, 4.212820999999999913e+03, 4.223077000000000226e+03, 1.000000000000000000e+00, 0.000000000000000000e+00, 1.000000000000000000e+02
8.800000000000000000e+01, 4.229743999999999687e+03, 4.164103000000000065e+03, 4.097435999999999694e+03, 4.226154000000000451e+03, 4.208717999999999847e+03, 1.000000000000000000e+00, 0.000000000000000000e+00, 1.000000000000000000e+02
8.900000000000000000e+01, 4.232307999999999993e+03, 4.168204999999999927e+03, 4.110769000000000233e+03, 4.248204999999999927e+03, 4.216922999999999774e+03, 1.000000000000000000e+00, 0.000000000000000000e+00, 1.000000000000000000e+02
9.000000000000000000e+01, 4.238462000000000444e+03, 4.172307999999999993e+03, 4.112307999999999993e+03, 4.246154000000000451e+03, 4.230256000000000313e+03, 1.000000000000000000e+00, 0.000000000000000000e+00, 1.000000000000000000e+02
9.100000000000000000e+01, 4.225640999999999622e+03, 4.170256000000000313e+03, 4.098974000000000160e+03, 4.220000000000000000e+03, 4.209230999999999767e+03, 1.000000000000000000e+00, 0.000000000000000000e+00, 1.000000000000000000e+02
9.200000000000000000e+01, 4.229230999999999767e+03, 4.182564000000000306e+03, 4.107179000000000087e+03, 4.208204999999999927e+03, 4.207692000000000007e+03, 1.000000000000000000e+00, 0.000000000000000000e+00, 1.000000000000000000e+02
9.300000000000000000e+01, 4.236922999999999774e+03, 4.192820999999999913e+03, 4.115385000000000218e+03, 4.228204999999999927e+03, 4.217948999999999614e+03, 1.000000000000000000e+00, 0.000000000000000000e+00, 1.000000000000000000e+02
9.400000000000000000e+01, 4.231282000000000153e+03, 4.182564000000000306e+03, 4.105127999999999702e+03, 4.246667000000000371e+03, 4.213845999999999549e+03, 1.000000000000000000e+00, 0.000000000000000000e+00, 1.000000000000000000e+02
9.500000000000000000e+01, 4.237948999999999614e+03, 4.170256000000000313e+03, 4.101025999999999840e+03, 4.236922999999999774e+03, 4.221025999999999840e+03, 1.000000000000000000e+00, 0.000000000000000000e+00, 1.000000000000000000e+02
9.600000000000000000e+01, 4.241537999999999556e+03, 4.166154000000000451e+03, 4.106154000000000451e+03, 4.222051000000000386e+03, 4.225127999999999702e+03, 1.000000000000000000e+00, 0.000000000000000000e+00, 1.000000000000000000e+02
9.700000000000000000e+01, 4.238974000000000160e+03, 4.166154000000000451e+03, 4.113332999999999629e+03, 4.223077000000000226e+03, 4.223590000000000146e+03, 1.000000000000000000e+00, 0.000000000000000000e+00, 1.000000000000000000e+02
9.800000000000000000e+01, 4.238974000000000160e+03, 4.178462000000000444e+03, 4.123077000000000226e+03, 4.221025999999999840e+03, 4.219487000000000080e+03, 1.000000000000000000e+00, 0.000000000000000000e+00, 1.000000000000000000e+02
9.900000000000000000e+01, 4.251282000000000153e+03, 4.194872000000000298e+03, 4.133332999999999629e+03, 4.226154000000000451e+03, 4.222564000000000306e+03, 1.000000000000000000e+00, 0.000000000000000000e+00, 1.000000000000000000e+02
1.000000000000000000e+02, 4.262051000000000386e+03, 4.201025999999999840e+03, 4.125127999999999702e+03, 4.246154000000000451e+03, 4.233845999999999549e+03, 1.000000000000000000e+00, 0.000000000000000000e+00, 1.000000000000000000e+02
1.010000000000000000e+02, 4.246667000000000371e+03, 4.192820999999999913e+03, 4.108717999999999847e+03, 4.246667000000000371e+03, 4.225127999999999702e+03, 1.000000000000000000e+00, 0.000000000000000000e+00, 1.000000000000000000e+02
1.020000000000000000e+02, 4.243077000000000226e+03, 4.188717999999999847e+03, 4.113332999999999629e+03, 4.236922999999999774e+03, 4.225640999999999622e+03, 1.000000000000000000e+00, 0.000000000000000000e+00, 1.000000000000000000e+02
1.030000000000000000e+02, 4.250256000000000313e+03, 4.182564000000000306e+03, 4.121537999999999556e+03, 4.242564000000000306e+03, 4.232307999999999993e+03, 1.000000000000000000e+00, 0.000000000000000000e+00, 1.000000000000000000e+02
1.040000000000000000e+02, 4.253845999999999549e+03, 4.180512999999999920e+03, 4.118462000000000444e+03, 4.245127999999999702e+03, 4.233845999999999549e+03, 1.000000000000000000e+00, 0.000000000000000000e+00, 1.000000000000000000e+02
1.050000000000000000e+02, 4.260000000000000000e+03, 4.203077000000000226e+03, 4.112820999999999913e+03, 4.241025999999999840e+03, 4.243077000000000226e+03, 1.000000000000000000e+00, 0.000000000000000000e+00, 1.000000000000000000e+02
1.060000000000000000e+02, 4.245640999999999622e+03, 4.223590000000000146e+03, 4.106154000000000451e+03, 4.253332999999999629e+03, 4.230769000000000233e+03, 1.000000000000000000e+00, 0.000000000000000000e+00, 1.000000000000000000e+02
1.070000000000000000e+02, 4.232307999999999993e+03, 4.203077000000000226e+03, 4.106154000000000451e+03, 4.260512999999999920e+03, 4.220512999999999920e+03, 1.000000000000000000e+00, 0.000000000000000000e+00, 1.000000000000000000e+02
1.080000000000000000e+02, 4.228717999999999847e+03, 4.178462000000000444e+03, 4.106667000000000371e+03, 4.241025999999999840e+03, 4.219487000000000080e+03, 1.000000000000000000e+00, 0.000000000000000000e+00, 1.000000000000000000e+02
1.090000000000000000e+02, 4.231795000000000073e+03, 4.194872000000000298e+03, 4.112307999999999993e+03, 4.237948999999999614e+03, 4.215896999999999935e+03, 1.000000000000000000e+00, 0.000000000000000000e+00, 1.000000000000000000e+02
1.100000000000000000e+02, 4.247179000000000087e+03, 4.211282000000000153e+03, 4.126667000000000371e+03, 4.253845999999999549e+03, 4.227179000000000087e+03, 1.000000000000000000e+00, 0.000000000000000000e+00, 1.000000000000000000e+02
1.110000000000000000e+02, 4.246667000000000371e+03, 4.188717999999999847e+03, 4.134359000000000378e+03, 4.250256000000000313e+03, 4.229230999999999767e+03, 1.000000000000000000e+00, 0.000000000000000000e+00, 1.000000000000000000e+02
1.120000000000000000e+02, 4.245640999999999622e+03, 4.182564000000000306e+03, 4.142564000000000306e+03, 4.243077000000000226e+03, 4.233845999999999549e+03, 1.000000000000000000e+00, 0.000000000000000000e+00, 1.000000000000000000e+02
1.130000000000000000e+02, 4.243590000000000146e+03, 4.213332999999999629e+03, 4.138462000000000444e+03, 4.253332999999999629e+03, 4.232820999999999913e+03, 1.000000000000000000e+00, 0.000000000000000000e+00, 1.000000000000000000e+02
1.140000000000000000e+02, 4.230769000000000233e+03, 4.221537999999999556e+03, 4.117435999999999694e+03, 4.250769000000000233e+03, 4.214872000000000298e+03, 1.000000000000000000e+00, 0.000000000000000000e+00, 1.000000000000000000e+02
1.150000000000000000e+02, 4.237435999999999694e+03, 4.201025999999999840e+03, 4.111795000000000073e+03, 4.236409999999999854e+03, 4.223077000000000226e+03, 1.000000000000000000e+00, 0.000000000000000000e+00, 1.000000000000000000e+02
1.160000000000000000e+02, 4.247692000000000007e+03, 4.198974000000000160e+03, 4.108204999999999927e+03, 4.242051000000000386e+03, 4.229230999999999767e+03, 1.000000000000000000e+00, 0.000000000000000000e+00, 1.000000000000000000e+02
1.170000000000000000e+02, 4.246154000000000451e+03, 4.198974000000000160e+03, 4.095385000000000218e+03, 4.242051000000000386e+03, 4.221025999999999840e+03, 1.000000000000000000e+00, 0.000000000000000000e+00, 1.000000000000000000e+02
1.180000000000000000e+02, 4.239487000000000080e+03, 4.190769000000000233e+03, 4.099487000000000080e+03, 4.221537999999999556e+03, 4.226154000000000451e+03, 1.000000000000000000e+00, 0.000000000000000000e+00, 1.000000000000000000e+02
1.190000000000000000e+02, 4.234872000000000298e+03, 4.198974000000000160e+03, 4.114359000000000378e+03, 4.225127999999999702e+03, 4.227179000000000087e+03, 1.000000000000000000e+00, 0.000000000000000000e+00, 1.000000000000000000e+02
1.200000000000000000e+02, 4.244103000000000065e+03, 4.205127999999999702e+03, 4.113845999999999549e+03, 4.250256000000000313e+03, 4.223590000000000146e+03, 1.000000000000000000e+00, 0.000000000000000000e+00, 1.000000000000000000e+02
1.210000000000000000e+02, 4.244614999999999782e+03, 4.201025999999999840e+03, 4.112307999999999993e+03, 4.251795000000000073e+03, 4.219487000000000080e+03, 1.000000000000000000e+00, 0.000000000000000000e+00, 1.000000000000000000e+02
1.220000000000000000e+02, 4.250769000000000233e+03, 4.213332999999999629e+03, 4.130256000000000313e+03, 4.243590000000000146e+03, 4.232307999999999993e+03, 1.000000000000000000e+00, 0.000000000000000000e+00, 1.000000000000000000e+02
1.230000000000000000e+02, 4.265640999999999622e+03, 4.225640999999999622e+03, 4.135385000000000218e+03, 4.250769000000000233e+03, 4.249743999999999687e+03, 1.000000000000000000e+00, 0.000000000000000000e+00, 1.000000000000000000e+02
1.240000000000000000e+02, 4.268717999999999847e+03, 4.215385000000000218e+03, 4.118462000000000444e+03, 4.249230999999999767e+03, 4.245127999999999702e+03, 1.000000000000000000e+00, 0.000000000000000000e+00, 1.000000000000000000e+02
1.250000000000000000e+02, 4.291795000000000073e+03, 4.205127999999999702e+03, 4.111795000000000073e+03, 4.233845999999999549e+03, 4.258974000000000160e+03, 1.000000000000000000e+00, 0.000000000000000000e+00, 1.000000000000000000e+02
1.260000000000000000e+02, 4.328717999999999847e+03, 4.213332999999999629e+03, 4.110256000000000313e+03, 4.225127999999999702e+03, 4.283590000000000146e+03, 1.000000000000000000e+00, 0.000000000000000000e+00, 1.000000000000000000e+02
1.270000000000000000e+02, 4.364103000000000065e+03, 4.209230999999999767e+03, 4.108717999999999847e+03, 4.228204999999999927e+03, 4.309743999999999687e+03, 1.000000000000000000e+00, 0.000000000000000000e+00, 1.000000000000000000e+02
0.000000000000000000e+00, 4.406667000000000371e+03, 4.201025999999999840e+03, 4.109743999999999687e+03, 4.240512999999999920e+03, 4.344103000000000065e+03, 1.000000000000000000e+00, 0.000000000000000000e+00, 1.000000000000000000e+02
1.000000000000000000e+00, 4.451282000000000153e+03, 4.217435999999999694e+03, 4.111795000000000073e+03, 4.254872000000000298e+03, 4.372307999999999993e+03, 1.000000000000000000e+00, 0.000000000000000000e+00, 1.000000000000000000e+02
2.000000000000000000e+00, 4.501025999999999840e+03, 4.235896999999999935e+03, 4.119487000000000080e+03, 4.268204999999999927e+03, 4.413332999999999629e+03, 1.000000000000000000e+00, 0.000000000000000000e+00, 1.000000000000000000e+02
3.000000000000000000e+00, 4.532820999999999913e+03, 4.225640999999999622e+03, 4.123590000000000146e+03, 4.268204999999999927e+03, 4.439487000000000080e+03, 1.000000000000000000e+00, 0.000000000000000000e+00, 1.000000000000000000e+02
4.000000000000000000e+00, 4.544103000000000065e+03, 4.223590000000000146e+03, 4.124103000000000065e+03, 4.251795000000000073e+03, 4.445640999999999622e+03, 1.000000000000000000e+00, 0.000000000000000000e+00, 1.000000000000000000e+02
5.000000000000000000e+00, 4.557948999999999614e+03, 4.244103000000000065e+03, 4.131795000000000073e+03, 4.247179000000000087e+03, 4.462051000000000386e+03, 1.000000000000000000e+00, 0.000000000000000000e+00, 1.000000000000000000e+02
6.000000000000000000e+00, 4.563077000000000226e+03, 4.248204999999999927e+03, 4.140000000000000000e+03, 4.255385000000000218e+03, 4.469743999999999687e+03, 1.000000000000000000e+00, 0.000000000000000000e+00, 1.000000000000000000e+02
7.000000000000000000e+00, 4.567179000000000087e+03, 4.235896999999999935e+03, 4.147179000000000087e+03, 4.265127999999999702e+03, 4.477948999999999614e+03, 1.000000000000000000e+00, 0.000000000000000000e+00, 1.000000000000000000e+02
8.000000000000000000e+00, 4.561025999999999840e+03, 4.231795000000000073e+03, 4.143590000000000146e+03, 4.265640999999999622e+03, 4.478462000000000444e+03, 1.000000000000000000e+00, 0.000000000000000000e+00, 1.000000000000000000e+02
9.000000000000000000e+00, 4.543590000000000146e+03, 4.229743999999999687e+03, 4.129743999999999687e+03, 4.249230999999999767e+03, 4.461537999999999556e+03, 1.000000000000000000e+00, 0.000000000000000000e+00, 1.000000000000000000e+02
1.000000000000000000e+01, 4.525640999999999622e+03, 4.223590000000000146e+03, 4.119487000000000080e+03, 4.248717999999999847e+03, 4.442051000000000386e+03, 1.000000000000000000e+00, 0.000000000000000000e+00, 1.000000000000000000e+02
1.100000000000000000e+01, 4.499487000000000080e+03, 4.225640999999999622e+03, 4.126154000000000451e+03, 4.265127999999999702e+03, 4.418974000000000160e+03, 1.000000000000000000e+00, 0.000000000000000000e+00, 1.000000000000000000e+02
1.200000000000000000e+01, 4.489743999999999687e+03, 4.233845999999999549e+03, 4.144614999999999782e+03, 4.258974000000000160e+03, 4.413332999999999629e+03, 1.000000000000000000e+00, 0.000000000000000000e+00, 1.000000000000000000e+02
1.300000000000000000e+01, 4.473332999999999629e+03, 4.237948999999999614e+03, 4.128717999999999847e+03, 4.250256000000000313e+03, 4.400000000000000000e+03, 1.000000000000000000e+00, 0.000000000000000000e+00, 1.000000000000000000e+02
1.400000000000000000e+01, 4.432820999999999913e+03, 4.225640999999999622e+03, 4.094358999999999924e+03, 4.259487000000000080e+03, 4.367179000000000087e+03, 1.000000000000000000e+00, 0.000000000000000000e+00, 1.000000000000000000e+02
1.500000000000000000e+01, 4.403590000000000146e+03, 4.215385000000000218e+03, 4.094358999999999924e+03, 4.255385000000000218e+03, 4.353845999999999549e+03, 1.000000000000000000e+00, 0.000000000000000000e+00, 1.000000000000000000e+02
1.600000000000000000e+01, 4.378974000000000160e+03, 4.215385000000000218e+03, 4.110256000000000313e+03, 4.242051000000000386e+03, 4.333845999999999549e+03, 1.000000000000000000e+00, 0.000000000000000000e+00, 1.000000000000000000e+02
1.700000000000000000e+01, 4.356922999999999774e+03, 4.215385000000000218e+03, 4.116922999999999774e+03, 4.242564000000000306e+03, 4.309743999999999687e+03, 1.000000000000000000e+00, 0.000000000000000000e+00, 1.000000000000000000e+02
1.800000000000000000e+01, 4.333845999999999549e+03, 4.211282000000000153e+03, 4.118974000000000160e+03, 4.243590000000000146e+03, 4.287179000000000087e+03, 1.000000000000000000e+00, 0.000000000000000000e+00, 1.000000000000000000e+02
1.900000000000000000e+01, 4.311282000000000153e+03, 4.207179000000000087e+03, 4.120000000000000000e+03, 4.229230999999999767e+03, 4.266154000000000451e+03, 1.000000000000000000e+00, 0.000000000000000000e+00, 1.000000000000000000e+02
2.000000000000000000e+01, 4.308204999999999927e+03, 4.198974000000000160e+03, 4.113332999999999629e+03, 4.217435999999999694e+03, 4.269230999999999767e+03, 1.000000000000000000e+00, 0.000000000000000000e+00, 1.000000000000000000e+02
2.100000000000000000e+01, 4.306667000000000371e+03, 4.196922999999999774e+03, 4.106667000000000371e+03, 4.228717999999999847e+03, 4.272307999999999993e+03, 1.000000000000000000e+00, 0.000000000000000000e+00, 1.000000000000000000e+02
2.200000000000000000e+01, 4.304103000000000065e+03, 4.211282000000000153e+03, 4.105127999999999702e+03, 4.245640999999999622e+03, 4.270769000000000233e+03, 1.000000000000000000e+00, 0.000000000000000000e+00, 1.000000000000000000e+02
2.300000000000000000e+01, 4.285640999999999622e+03, 4.215385000000000218e+03, 4.091282000000000153e+03, 4.237435999999999694e+03, 4.256409999999999854e+03, 1.000000000000000000e+00, 0.000000000000000000e+00, 1.000000000000000000e+02
2.400000000000000000e+01, 4.261537999999999556e+03, 4.198974000000000160e+03, 4.089231000000000222e+03, 4.222051000000000386e+03, 4.236409999999999854e+03, 1.000000000000000000e+00, 0.000000000000000000e+00, 1.000000000000000000e+02
2.500000000000000000e+01, 4.265640999999999622e+03, 4.198974000000000160e+03, 4.110256000000000313e+03, 4.222051000000000386e+03, 4.240000000000000000e+03, 1.000000000000000000e+00, 0.000000000000000000e+00, 1.000000000000000000e+02
2.600000000000000000e+01, 4.263077000000000226e+03, 4.207179000000000087e+03, 4.114872000000000298e+03, 4.217948999999999614e+03, 4.234359000000000378e+03, 1.000000000000000000e+00, 0.000000000000000000e+00, 1.000000000000000000e+02
2.700000000000000000e+01, 4.247179000000000087e+03, 4.194872000000000298e+03, 4.117948999999999614e+03, 4.215385000000000218e+03, 4.225127999999999702e+03, 1.000000000000000000e+00, 0.000000000000000000e+00, 1.000000000000000000e+02
2.800000000000000000e+01, 4.228717999999999847e+03, 4.184614999999999782e+03, 4.127179000000000087e+03, 4.230256000000000313e+03, 4.218462000000000444e+03, 1.000000000000000000e+00, 0.000000000000000000e+00, 1.000000000000000000e+02
2.900000000000000000e+01, 4.203590000000000146e+03, 4.201025999999999840e+03, 4.122564000000000306e+03, 4.240000000000000000e+03, 4.199487000000000080e+03, 1.000000000000000000e+00, 0.000000000000000000e+00, 1.000000000000000000e+02
3.000000000000000000e+01, 4.194359000000000378e+03, 4.215385000000000218e+03, 4.115896999999999935e+03, 4.233845999999999549e+03, 4.193332999999999629e+03, 1.000000000000000000e+00, 0.000000000000000000e+00, 1.000000000000000000e+02
3.100000000000000000e+01, 4.189743999999999687e+03, 4.205127999999999702e+03, 4.113332999999999629e+03, 4.223077000000000226e+03, 4.184614999999999782e+03, 1.000000000000000000e+00, 0.000000000000000000e+00, 1.000000000000000000e+02
3.200000000000000000e+01, 4.181025999999999840e+03, 4.190769000000000233e+03, 4.107179000000000087e+03, 4.205127999999999702e+03, 4.174872000000000298e+03, 1.000000000000000000e+00, 0.000000000000000000e+00, 1.000000000000000000e+02
3.300000000000000000e+01, 4.174359000000000378e+03, 4.190769000000000233e+03, 4.101025999999999840e+03, 4.192307999999999993e+03, 4.177435999999999694e+03, 1.000000000000000000e+00, 0.000000000000000000e+00, 1.000000000000000000e+02
3.400000000000000000e+01, 4.173845999999999549e+03, 4.196922999999999774e+03, 4.100512999999999920e+03, 4.203590000000000146e+03, 4.178462000000000444e+03, 1.000000000000000000e+00, 0.000000000000000000e+00, 1.000000000000000000e+02
3.500000000000000000e+01, 4.195896999999999935e+03, 4.198974000000000160e+03, 4.104103000000000065e+03, 4.222051000000000386e+03, 4.188204999999999927e+03, 1.000000000000000000e+00, 0.000000000000000000e+00, 1.000000000000000000e+02
3.600000000000000000e+01, 4.203590000000000146e+03, 4.194872000000000298e+03, 4.097948999999999614e+03, 4.223077000000000226e+03, 4.189230999999999767e+03, 1.000000000000000000e+00, 0.000000000000000000e+00, 1.000000000000000000e+02
3.700000000000000000e+01, 4.191282000000000153e+03, 4.196922999999999774e+03, 4.090768999999999778e+03, 4.211282000000000153e+03, 4.188204999999999927e+03, 1.000000000000000000e+00, 0.000000000000000000e+00, 1.000000000000000000e+02
3.800000000000000000e+01, 4.191282000000000153e+03, 4.203077000000000226e+03, 4.097435999999999694e+03, 4.214872000000000298e+03, 4.194359000000000378e+03, 1.000000000000000000e+00, 0.000000000000000000e+00, 1.000000000000000000e+02
3.900000000000000000e+01, 4.191795000000000073e+03, 4.203077000000000226e+03, 4.107179000000000087e+03, 4.217435999999999694e+03, 4.181537999999999556e+03, 1.000000000000000000e+00, 0.000000000000000000e+00, 1.000000000000000000e+02
4.000000000000000000e+01, 4.187179000000000087e+03, 4.196922999999999774e+03, 4.107179000000000087e+03, 4.206154000000000451e+03, 4.174359000000000378e+03, 1.000000000000000000e+00, 0.000000000000000000e+00, 1.000000000000000000e+02
4.100000000000000000e+01, 4.176922999999999774e+03, 4.198974000000000160e+03, 4.097435999999999694e+03, 4.210256000000000313e+03, 4.175896999999999935e+03, 1.000000000000000000e+00, 0.000000000000000000e+00, 1.000000000000000000e+02
4.200000000000000000e+01, 4.178974000000000160e+03, 4.203077000000000226e+03, 4.097948999999999614e+03, 4.223077000000000226e+03, 4.179487000000000080e+03, 1.000000000000000000e+00, 0.000000000000000000e+00, 1.000000000000000000e+02
4.300000000000000000e+01, 4.187692000000000007e+03, 4.194872000000000298e+03, 4.100000000000000000e+03, 4.217435999999999694e+03, 4.178974000000000160e+03, 1.000000000000000000e+00, 0.000000000000000000e+00, 1.000000000000000000e+02
4.400000000000000000e+01, 4.173845999999999549e+03, 4.178462000000000444e+03, 4.085128000000000156e+03, 4.211282000000000153e+03, 4.156409999999999854e+03, 1.000000000000000000e+00, 0.000000000000000000e+00, 1.000000000000000000e+02
4.500000000000000000e+01, 4.166667000000000371e+03, 4.176409999999999854e+03, 4.087179000000000087e+03, 4.215385000000000218e+03, 4.157435999999999694e+03, 1.000000000000000000e+00, 0.000000000000000000e+00, 1.000000000000000000e+02
4.600000000000000000e+01, 4.170256000000000313e+03, 4.196922999999999774e+03, 4.104103000000000065e+03, 4.203590000000000146e+03, 4.172307999999999993e+03, 1.000000000000000000e+00, 0.000000000000000000e+00, 1.000000000000000000e+02
4.700000000000000000e+01, 4.169743999999999687e+03, 4.209230999999999767e+03, 4.107692000000000007e+03, 4.204614999999999782e+03, 4.173845999999999549e+03, 1.000000000000000000e+00, 0.000000000000000000e+00, 1.000000000000000000e+02
4.800000000000000000e+01, 4.168717999999999847e+03, 4.201025999999999840e+03, 4.097948999999999614e+03, 4.233332999999999629e+03, 4.173332999999999629e+03, 1.000000000000000000e+00, 0.000000000000000000e+00, 1.000000000000000000e+02
4.900000000000000000e+01, 4.162564000000000306e+03, 4.194872000000000298e+03, 4.093333000000000084e+03, 4.236409999999999854e+03, 4.162564000000000306e+03, 1.000000000000000000e+00, 0.000000000000000000e+00, 1.000000000000000000e+02
5.000000000000000000e+01, 4.166154000000000451e+03, 4.203077000000000226e+03, 4.101025999999999840e+03, 4.217948999999999614e+03, 4.165640999999999622e+03, 1.000000000000000000e+00, 0.000000000000000000e+00, 1.000000000000000000e+02
5.100000000000000000e+01, 4.167179000000000087e+03, 4.201025999999999840e+03, 4.100512999999999920e+03, 4.215385000000000218e+03, 4.169230999999999767e+03, 1.000000000000000000e+00, 0.000000000000000000e+00, 1.000000000000000000e+02
5.200000000000000000e+01, 4.163077000000000226e+03, 4.174359000000000378e+03, 4.091795000000000073e+03, 4.213845999999999549e+03, 4.154359000000000378e+03, 1.000000000000000000e+00, 0.000000000000000000e+00, 1.000000000000000000e+02
5.300000000000000000e+01, 4.167179000000000087e+03, 4.172307999999999993e+03, 4.090255999999999858e+03, 4.204103000000000065e+03, 4.153332999999999629e+03, 1.000000000000000000e+00, 0.000000000000000000e+00, 1.000000000000000000e+02
5.400000000000000000e+01, 4.162051000000000386e+03, 4.203077000000000226e+03, 4.092307999999999993e+03, 4.203590000000000146e+03, 4.155385000000000218e+03, 1.000000000000000000e+00, 0.000000000000000000e+00, 1.000000000000000000e+02
5.500000000000000000e+01, 4.167692000000000007e+03, 4.221537999999999556e+03, 4.096922999999999774e+03, 4.210769000000000233e+03, 4.162051000000000386e+03, 1.000000000000000000e+00, 0.000000000000000000e+00, 1.000000000000000000e+02
5.600000000000000000e+01, 4.180512999999999920e+03, 4.215385000000000218e+03, 4.100512999999999920e+03, 4.221537999999999556e+03, 4.167692000000000007e+03, 1.000000000000000000e+00, 0.000000000000000000e+00, 1.000000000000000000e+02
5.700000000000000000e+01, 4.180512999999999920e+03, 4.205127999999999702e+03, 4.105640999999999622e+03, 4.227179000000000087e+03, 4.165127999999999702e+03, 1.000000000000000000e+00, 0.000000000000000000e+00, 1.000000000000000000e+02
5.800000000000000000e+01, 4.182564000000000306e+03, 4.205127999999999702e+03, 4.107692000000000007e+03, 4.220512999999999920e+03, 4.174872000000000298e+03, 1.000000000000000000e+00, 0.000000000000000000e+00, 1.000000000000000000e+02
5.900000000000000000e+01, 4.178462000000000444e+03, 4.211282000000000153e+03, 4.093846000000000004e+03, 4.221025999999999840e+03, 4.177435999999999694e+03, 1.000000000000000000e+00, 0.000000000000000000e+00, 1.000000000000000000e+02
6.000000000000000000e+01, 4.177948999999999614e+03, 4.203077000000000226e+03, 4.084103000000000065e+03, 4.224103000000000065e+03, 4.180000000000000000e+03, 1.000000000000000000e+00, 0.000000000000000000e+00, 1.000000000000000000e+02
6.100000000000000000e+01, 4.177435999999999694e+03, 4.192820999999999913e+03, 4.085641000000000076e+03, 4.210256000000000313e+03, 4.180000000000000000e+03, 1.000000000000000000e+00, 0.000000000000000000e+00, 1.000000000000000000e+02
6.200000000000000000e+01, 4.170769000000000233e+03, 4.207179000000000087e+03, 4.084614999999999782e+03, 4.206667000000000371e+03, 4.165640999999999622e+03, 1.000000000000000000e+00, 0.000000000000000000e+00, 1.000000000000000000e+02
6.300000000000000000e+01, 4.175896999999999935e+03, 4.223590000000000146e+03, 4.082563999999999851e+03, 4.224103000000000065e+03, 4.168717999999999847e+03, 1.000000000000000000e+00, 0.000000000000000000e+00, 1.000000000000000000e+02
6.400000000000000000e+01, 4.176922999999999774e+03, 4.215385000000000218e+03, 4.083590000000000146e+03, 4.222564000000000306e+03, 4.171795000000000073e+03, 1.000000000000000000e+00, 0.000000000000000000e+00, 1.000000000000000000e+02
6.500000000000000000e+01, 4.179487000000000080e+03, 4.209230999999999767e+03, 4.094871999999999844e+03, 4.212307999999999993e+03, 4.167179000000000087e+03, 1.000000000000000000e+00, 0.000000000000000000e+00, 1.000000000000000000e+02
6.600000000000000000e+01, 4.175896999999999935e+03, 4.213332999999999629e+03, 4.097435999999999694e+03, 4.213845999999999549e+03, 4.158974000000000160e+03, 1.000000000000000000e+00, 0.000000000000000000e+00, 1.000000000000000000e+02
6.700000000000000000e+01, 4.157435999999999694e+03, 4.213332999999999629e+03, 4.092820999999999913e+03, 4.204103000000000065e+03, 4.148204999999999927e+03, 1.000000000000000000e+00, 0.000000000000000000e+00, 1.000000000000000000e+02
6.800000000000000000e+01, 4.165127999999999702e+03, 4.213332999999999629e+03, 4.095896999999999935e+03, 4.200512999999999920e+03, 4.158462000000000444e+03, 1.000000000000000000e+00, 0.000000000000000000e+00, 1.000000000000000000e+02
6.900000000000000000e+01, 4.177948999999999614e+03, 4.215385000000000218e+03, 4.096409999999999854e+03, 4.213845999999999549e+03, 4.162051000000000386e+03, 1.000000000000000000e+00, 0.000000000000000000e+00, 1.000000000000000000e+02
7.000000000000000000e+01, 4.177948999999999614e+03, 4.215385000000000218e+03, 4.092820999999999913e+03, 4.218462000000000444e+03, 4.162564000000000306e+03, 1.000000000000000000e+00, 0.000000000000000000e+00, 1.000000000000000000e+02
7.100000000000000000e+01, 4.181025999999999840e+03, 4.215385000000000218e+03, 4.081538000000000011e+03, 4.218462000000000444e+03, 4.173845999999999549e+03, 1.000000000000000000e+00, 0.000000000000000000e+00, 1.000000000000000000e+02
7.200000000000000000e+01, 4.187179000000000087e+03, 4.213332999999999629e+03, 4.068204999999999927e+03, 4.221025999999999840e+03, 4.174872000000000298e+03, 1.000000000000000000e+00, 0.000000000000000000e+00, 1.000000000000000000e+02
7.300000000000000000e+01, 4.193845999999999549e+03, 4.215385000000000218e+03, 4.076409999999999854e+03, 4.216922999999999774e+03, 4.179487000000000080e+03, 1.000000000000000000e+00, 0.000000000000000000e+00, 1.000000000000000000e+02
7.400000000000000000e+01, 4.182564000000000306e+03, 4.221537999999999556e+03, 4.093846000000000004e+03, 4.215896999999999935e+03, 4.174872000000000298e+03, 1.000000000000000000e+00, 0.000000000000000000e+00, 1.000000000000000000e+02
7.500000000000000000e+01, 4.170769000000000233e+03, 4.217435999999999694e+03, 4.100512999999999920e+03, 4.230769000000000233e+03, 4.168204999999999927e+03, 1.000000000000000000e+00, 0.000000000000000000e+00, 1.000000000000000000e+02
7.600000000000000000e+01, 4.174872000000000298e+03, 4.203077000000000226e+03, 4.098462000000000444e+03, 4.236409999999999854e+03, 4.175385000000000218e+03, 1.000000000000000000e+00, 0.000000000000000000e+00, 1.000000000000000000e+02
7.700000000000000000e+01, 4.172307999999999993e+03, 4.203077000000000226e+03, 4.098974000000000160e+03, 4.225127999999999702e+03, 4.167692000000000007e+03, 1.000000000000000000e+00, 0.000000000000000000e+00, 1.000000000000000000e+02
7.800000000000000000e+01, 4.175385000000000218e+03, 4.215385000000000218e+03, 4.106154000000000451e+03, 4.215385000000000218e+03, 4.167692000000000007e+03, 1.000000000000000000e+00, 0.000000000000000000e+00, 1.000000000000000000e+02
7.900000000000000000e+01, 4.183077000000000226e+03, 4.235896999999999935e+03, 4.109230999999999767e+03, 4.213845999999999549e+03, 4.171282000000000153e+03, 1.000000000000000000e+00, 0.000000000000000000e+00, 1.000000000000000000e+02
8.000000000000000000e+01, 4.192307999999999993e+03, 4.233845999999999549e+03, 4.116922999999999774e+03, 4.221537999999999556e+03, 4.173332999999999629e+03, 1.000000000000000000e+00, 0.000000000000000000e+00, 1.000000000000000000e+02
8.100000000000000000e+01, 4.197435999999999694e+03, 4.219487000000000080e+03, 4.128204999999999927e+03, 4.234872000000000298e+03, 4.183590000000000146e+03, 1.000000000000000000e+00, 0.000000000000000000e+00, 1.000000000000000000e+02
8.200000000000000000e+01, 4.179487000000000080e+03, 4.221537999999999556e+03, 4.117948999999999614e+03, 4.229743999999999687e+03, 4.172307999999999993e+03, 1.000000000000000000e+00, 0.000000000000000000e+00, 1.000000000000000000e+02
8.300000000000000000e+01, 4.174359000000000378e+03, 4.219487000000000080e+03, 4.097435999999999694e+03, 4.211282000000000153e+03, 4.166154000000000451e+03, 1.000000000000000000e+00, 0.000000000000000000e+00, 1.000000000000000000e+02
8.400000000000000000e+01, 4.190256000000000313e+03, 4.201025999999999840e+03, 4.085128000000000156e+03, 4.214359000000000378e+03, 4.177435999999999694e+03, 1.000000000000000000e+00, 0.000000000000000000e+00, 1.000000000000000000e+02
8.500000000000000000e+01, 4.202564000000000306e+03, 4.198974000000000160e+03, 4.083077000000000226e+03, 4.216409999999999854e+03, 4.185127999999999702e+03, 1.000000000000000000e+00, 0.000000000000000000e+00, 1.000000000000000000e+02
8.600000000000000000e+01, 4.199487000000000080e+03, 4.219487000000000080e+03, 4.082050999999999931e+03, 4.203590000000000146e+03, 4.185127999999999702e+03, 1.000000000000000000e+00, 0.000000000000000000e+00, 1.000000000000000000e+02
8.700000000000000000e+01, 4.174872000000000298e+03, 4.225640999999999622e+03, 4.076922999999999774e+03, 4.210256000000000313e+03, 4.167692000000000007e+03, 1.000000000000000000e+00, 0.000000000000000000e+00, 1.000000000000000000e+02
8.800000000000000000e+01, 4.171282000000000153e+03, 4.215385000000000218e+03, 4.085641000000000076e+03, 4.222051000000000386e+03, 4.164614999999999782e+03, 1.000000000000000000e+00, 0.000000000000000000e+00, 1.000000000000000000e+02
8.900000000000000000e+01, 4.185127999999999702e+03, 4.207179000000000087e+03, 4.095896999999999935e+03, 4.215385000000000218e+03, 4.171795000000000073e+03, 1.000000000000000000e+00, 1.000000000000000000e+00, 1.000000000000000000e+02
9.000000000000000000e+01, 4.181537999999999556e+03, 4.196922999999999774e+03, 4.089231000000000222e+03, 4.211795000000000073e+03, 4.168204999999999927e+03, 1.000000000000000000e+00, 1.000000000000000000e+00, 1.000000000000000000e+02
9.100000000000000000e+01, 4.173332999999999629e+03, 4.194872000000000298e+03, 4.084614999999999782e+03, 4.213845999999999549e+03, 4.164614999999999782e+03, 1.000000000000000000e+00, 1.000000000000000000e+00, 1.000000000000000000e+02
9.200000000000000000e+01, 4.163077000000000226e+03, 4.211282000000000153e+03, 4.086153999999999996e+03, 4.195896999999999935e+03, 4.151795000000000073e+03, 1.000000000000000000e+00, 1.000000000000000000e+00, 1.000000000000000000e+02
9.300000000000000000e+01, 4.166667000000000371e+03, 4.219487000000000080e+03, 4.086666999999999916e+03, 4.191795000000000073e+03, 4.154359000000000378e+03, 1.000000000000000000e+00, 1.000000000000000000e+00, 1.000000000000000000e+02
9.400000000000000000e+01, 4.178974000000000160e+03, 4.203077000000000226e+03, 4.087692000000000007e+03, 4.214359000000000378e+03, 4.165127999999999702e+03, 1.000000000000000000e+00, 1.000000000000000000e+00, 1.000000000000000000e+02
9.500000000000000000e+01, 4.177948999999999614e+03, 4.190769000000000233e+03, 4.085128000000000156e+03, 4.216409999999999854e+03, 4.162564000000000306e+03, 1.000000000000000000e+00, 1.000000000000000000e+00, 1.000000000000000000e+02
9.600000000000000000e+01, 4.176922999999999774e+03, 4.205127999999999702e+03, 4.078974000000000160e+03, 4.198974000000000160e+03, 4.169230999999999767e+03, 1.000000000000000000e+00, 1.000000000000000000e+00, 1.000000000000000000e+02
9.700000000000000000e+01, 4.172820999999999913e+03, 4.201025999999999840e+03, 4.073333000000000084e+03, 4.186154000000000451e+03, 4.162564000000000306e+03, 1.000000000000000000e+00, 1.000000000000000000e+00, 1.000000000000000000e+02
9.800000000000000000e+01, 4.170769000000000233e+03, 4.182564000000000306e+03, 4.066666999999999916e+03, 4.175896999999999935e+03, 4.153332999999999629e+03, 1.000000000000000000e+00, 1.000000000000000000e+00, 1.000000000000000000e+02
9.900000000000000000e+01, 4.174359000000000378e+03, 4.192820999999999913e+03, 4.054871999999999844e+03, 4.178974000000000160e+03, 4.161025999999999840e+03, 1.000000000000000000e+00, 1.000000000000000000e+00, 1.000000000000000000e+02
1.000000000000000000e+02, 4.176409999999999854e+03, 4.207179000000000087e+03, 4.058461999999999989e+03, 4.197435999999999694e+03, 4.169230999999999767e+03, 1.000000000000000000e+00, 1.000000000000000000e+00, 1.000000000000000000e+02
1.010000000000000000e+02, 4.181025999999999840e+03, 4.201025999999999840e+03, 4.075385000000000218e+03, 4.206667000000000371e+03, 4.176409999999999854e+03, 1.000000000000000000e+00, 1.000000000000000000e+00, 1.000000000000000000e+02
1.020000000000000000e+02, 4.169230999999999767e+03, 4.201025999999999840e+03, 4.076922999999999774e+03, 4.202564000000000306e+03, 4.163590000000000146e+03, 1.000000000000000000e+00, 1.000000000000000000e+00, 1.000000000000000000e+02
1.030000000000000000e+02, 4.167179000000000087e+03, 4.213332999999999629e+03, 4.083590000000000146e+03, 4.195896999999999935e+03, 4.154872000000000298e+03, 1.000000000000000000e+00, 1.000000000000000000e+00, 1.000000000000000000e+02
1.040000000000000000e+02, 4.182051000000000386e+03, 4.211282000000000153e+03, 4.095896999999999935e+03, 4.194359000000000378e+03, 4.160512999999999920e+03, 1.000000000000000000e+00, 1.000000000000000000e+00, 1.000000000000000000e+02
1.050000000000000000e+02, 4.186154000000000451e+03, 4.194872000000000298e+03, 4.094871999999999844e+03, 4.207179000000000087e+03, 4.166667000000000371e+03, 1.000000000000000000e+00, 1.000000000000000000e+00, 1.000000000000000000e+02
1.060000000000000000e+02, 4.185640999999999622e+03, 4.192820999999999913e+03, 4.092820999999999913e+03, 4.214359000000000378e+03, 4.185640999999999622e+03, 1.000000000000000000e+00, 1.000000000000000000e+00, 1.000000000000000000e+02
1.070000000000000000e+02, 4.172307999999999993e+03, 4.203077000000000226e+03, 4.088717999999999847e+03, 4.200512999999999920e+03, 4.180000000000000000e+03, 1.000000000000000000e+00, 1.000000000000000000e+00, 1.000000000000000000e+02
1.080000000000000000e+02, 4.168204999999999927e+03, 4.207179000000000087e+03, 4.085641000000000076e+03, 4.193845999999999549e+03, 4.163590000000000146e+03, 1.000000000000000000e+00, 1.000000000000000000e+00, 1.000000000000000000e+02
1.090000000000000000e+02, 4.170769000000000233e+03, 4.203077000000000226e+03, 4.077949000000000069e+03, 4.197948999999999614e+03, 4.162051000000000386e+03, 1.000000000000000000e+00, 1.000000000000000000e+00, 1.000000000000000000e+02
1.100000000000000000e+02, 4.161025999999999840e+03, 4.203077000000000226e+03, 4.063590000000000146e+03, 4.183590000000000146e+03, 4.156409999999999854e+03, 1.000000000000000000e+00, 1.000000000000000000e+00, 1.000000000000000000e+02
1.110000000000000000e+02, 4.166667000000000371e+03, 4.201025999999999840e+03, 4.066666999999999916e+03, 4.172307999999999993e+03, 4.166667000000000371e+03, 1.000000000000000000e+00, 1.000000000000000000e+00, 1.000000000000000000e+02
1.120000000000000000e+02, 4.171795000000000073e+03, 4.188717999999999847e+03, 4.074358999999999924e+03, 4.183590000000000146e+03, 4.170769000000000233e+03, 1.000000000000000000e+00, 1.000000000000000000e+00, 1.000000000000000000e+02
1.130000000000000000e+02, 4.170769000000000233e+03, 4.186667000000000371e+03, 4.078461999999999989e+03, 4.196409999999999854e+03, 4.166667000000000371e+03, 1.000000000000000000e+00, 1.000000000000000000e+00, 1.000000000000000000e+02
1.140000000000000000e+02, 4.172307999999999993e+03, 4.207179000000000087e+03, 4.079487000000000080e+03, 4.204614999999999782e+03, 4.172307999999999993e+03, 1.000000000000000000e+00, 1.000000000000000000e+00, 1.000000000000000000e+02
1.150000000000000000e+02, 4.164614999999999782e+03, 4.217435999999999694e+03, 4.079487000000000080e+03, 4.202051000000000386e+03, 4.168204999999999927e+03, 1.000000000000000000e+00, 1.000000000000000000e+00, 1.000000000000000000e+02
1.160000000000000000e+02, 4.170769000000000233e+03, 4.203077000000000226e+03, 4.085641000000000076e+03, 4.189230999999999767e+03, 4.173845999999999549e+03, 1.000000000000000000e+00, 1.000000000000000000e+00, 1.000000000000000000e+02
1.170000000000000000e+02, 4.180512999999999920e+03, 4.196922999999999774e+03, 4.092307999999999993e+03, 4.190256000000000313e+03, 4.180000000000000000e+03, 1.000000000000000000e+00, 1.000000000000000000e+00, 1.000000000000000000e+02
1.180000000000000000e+02, 4.187692000000000007e+03, 4.198974000000000160e+03, 4.100000000000000000e+03, 4.209230999999999767e+03, 4.179487000000000080e+03, 1.000000000000000000e+00, 1.000000000000000000e+00, 1.000000000000000000e+02
1.190000000000000000e+02, 4.203077000000000226e+03, 4.196922999999999774e+03, 4.101537999999999556e+03, 4.220000000000000000e+03, 4.189230999999999767e+03, 1.000000000000000000e+00, 1.000000000000000000e+00, 1.000000000000000000e+02
1.200000000000000000e+02, 4.202051000000000386e+03, 4.205127999999999702e+03, 4.093333000000000084e+03, 4.214359000000000378e+03, 4.190256000000000313e+03, 1.000000000000000000e+00, 1.000000000000000000e+00, 1.000000000000000000e+02
1.210000000000000000e+02, 4.195385000000000218e+03, 4.213332999999999629e+03, 4.087179000000000087e+03, 4.205127999999999702e+03, 4.190769000000000233e+03, 1.000000000000000000e+00, 1.000000000000000000e+00, 1.000000000000000000e+02
1.220000000000000000e+02, 4.192307999999999993e+03, 4.209230999999999767e+03, 4.082050999999999931e+03, 4.189743999999999687e+03, 4.186667000000000371e+03, 1.000000000000000000e+00, 1.000000000000000000e+00, 1.000000000000000000e+02
1.230000000000000000e+02, 4.186154000000000451e+03, 4.198974000000000160e+03, 4.078974000000000160e+03, 4.180000000000000000e+03, 4.174359000000000378e+03, 1.000000000000000000e+00, 1.000000000000000000e+00, 1.000000000000000000e+02
1.240000000000000000e+02, 4.181025999999999840e+03, 4.188717999999999847e+03, 4.074358999999999924e+03, 4.189230999999999767e+03, 4.165127999999999702e+03, 1.000000000000000000e+00, 1.000000000000000000e+00, 1.000000000000000000e+02
1.250000000000000000e+02, 4.166667000000000371e+03, 4.180512999999999920e+03, 4.067179000000000087e+03, 4.191795000000000073e+03, 4.152820999999999913e+03, 1.000000000000000000e+00, 1.000000000000000000e+00, 1.000000000000000000e+02
1.260000000000000000e+02, 4.165127999999999702e+03, 4.182564000000000306e+03, 4.072820999999999913e+03, 4.173845999999999549e+03, 4.158974000000000160e+03, 1.000000000000000000e+00, 1.000000000000000000e+00, 1.000000000000000000e+02
1.270000000000000000e+02, 4.176409999999999854e+03, 4.201025999999999840e+03, 4.078974000000000160e+03, 4.175385000000000218e+03, 4.167692000000000007e+03, 1.000000000000000000e+00, 1.000000000000000000e+00, 1.000000000000000000e+02
0.000000000000000000e+00, 4.181537999999999556e+03, 4.213332999999999629e+03, 4.079487000000000080e+03, 4.195896999999999935e+03, 4.163590000000000146e+03, 1.000000000000000000e+00, 1.000000000000000000e+00, 1.000000000000000000e+02
1.000000000000000000e+00, 4.187179000000000087e+03, 4.209230999999999767e+03, 4.088717999999999847e+03, 4.194359000000000378e+03, 4.173845999999999549e+03, 1.000000000000000000e+00, 1.000000000000000000e+00, 1.000000000000000000e+02
2.000000000000000000e+00, 4.182564000000000306e+03, 4.201025999999999840e+03, 4.095896999999999935e+03, 4.187692000000000007e+03, 4.167179000000000087e+03, 1.000000000000000000e+00, 1.000000000000000000e+00, 1.000000000000000000e+02
3.000000000000000000e+00, 4.175385000000000218e+03, 4.198974000000000160e+03, 4.087692000000000007e+03, 4.197435999999999694e+03, 4.155385000000000218e+03, 1.000000000000000000e+00, 1.000000000000000000e+00, 1.000000000000000000e+02
4.000000000000000000e+00, 4.178462000000000444e+03, 4.196922999999999774e+03, 4.079487000000000080e+03, 4.202051000000000386e+03, 4.163590000000000146e+03, 1.000000000000000000e+00, 1.000000000000000000e+00, 1.000000000000000000e+02
5.000000000000000000e+00, 4.193332999999999629e+03, 4.201025999999999840e+03, 4.087692000000000007e+03, 4.200512999999999920e+03, 4.175896999999999935e+03, 1.000000000000000000e+00, 1.000000000000000000e+00, 1.000000000000000000e+02
6.000000000000000000e+00, 4.201025999999999840e+03, 4.209230999999999767e+03, 4.089744000000000142e+03, 4.191282000000000153e+03, 4.176922999999999774e+03, 1.000000000000000000e+00, 1.000000000000000000e+00, 1.000000000000000000e+02
7.000000000000000000e+00, 4.182051000000000386e+03, 4.196922999999999774e+03, 4.078461999999999989e+03, 4.171282000000000153e+03, 4.160512999999999920e+03, 1.000000000000000000e+00, 1.000000000000000000e+00, 1.000000000000000000e+02
8.000000000000000000e+00, 4.183077000000000226e+03, 4.182564000000000306e+03, 4.078461999999999989e+03, 4.175896999999999935e+03, 4.165640999999999622e+03, 1.000000000000000000e+00, 1.000000000000000000e+00, 1.000000000000000000e+02
9.000000000000000000e+00, 4.201537999999999556e+03, 4.201025999999999840e+03, 4.074871999999999844e+03, 4.205127999999999702e+03, 4.178974000000000160e+03, 1.000000000000000000e+00, 1.000000000000000000e+00, 1.000000000000000000e+02
1.000000000000000000e+01, 4.201025999999999840e+03, 4.217435999999999694e+03, 4.064614999999999782e+03, 4.212820999999999913e+03, 4.175385000000000218e+03, 1.000000000000000000e+00, 1.000000000000000000e+00, 1.000000000000000000e+02
1.100000000000000000e+01, 4.206667000000000371e+03, 4.201025999999999840e+03, 4.071795000000000073e+03, 4.204103000000000065e+03, 4.183590000000000146e+03, 1.000000000000000000e+00, 1.000000000000000000e+00, 1.000000000000000000e+02
1.200000000000000000e+01, 4.208204999999999927e+03, 4.196922999999999774e+03, 4.087692000000000007e+03, 4.198462000000000444e+03, 4.183590000000000146e+03, 1.000000000000000000e+00, 1.000000000000000000e+00, 1.000000000000000000e+02
1.300000000000000000e+01, 4.200000000000000000e+03, 4.213332999999999629e+03, 4.096922999999999774e+03, 4.195896999999999935e+03, 4.176409999999999854e+03, 1.000000000000000000e+00, 1.000000000000000000e+00, 1.000000000000000000e+02
1.400000000000000000e+01, 4.192820999999999913e+03, 4.209230999999999767e+03, 4.100000000000000000e+03, 4.203077000000000226e+03, 4.171282000000000153e+03, 1.000000000000000000e+00, 1.000000000000000000e+00, 1.000000000000000000e+02
1.500000000000000000e+01, 4.186667000000000371e+03, 4.201025999999999840e+03, 4.100000000000000000e+03, 4.211795000000000073e+03, 4.158974000000000160e+03, 1.000000000000000000e+00, 1.000000000000000000e+00, 1.000000000000000000e+02
1.600000000000000000e+01, 4.195896999999999935e+03, 4.211282000000000153e+03, 4.097948999999999614e+03, 4.210769000000000233e+03, 4.167179000000000087e+03, 1.000000000000000000e+00, 1.000000000000000000e+00, 1.000000000000000000e+02
1.700000000000000000e+01, 4.202564000000000306e+03, 4.209230999999999767e+03, 4.095896999999999935e+03, 4.210769000000000233e+03, 4.176922999999999774e+03, 1.000000000000000000e+00, 1.000000000000000000e+00, 1.000000000000000000e+02
1.800000000000000000e+01, 4.196922999999999774e+03, 4.190769000000000233e+03, 4.100512999999999920e+03, 4.204614999999999782e+03, 4.167692000000000007e+03, 1.000000000000000000e+00, 1.000000000000000000e+00, 1.000000000000000000e+02
1.900000000000000000e+01, 4.187179000000000087e+03, 4.182564000000000306e+03, 4.103077000000000226e+03, 4.191282000000000153e+03, 4.158462000000000444e+03, 1.000000000000000000e+00, 1.000000000000000000e+00, 1.000000000000000000e+02
2.000000000000000000e+01, 4.184103000000000065e+03, 4.196922999999999774e+03, 4.101537999999999556e+03, 4.185127999999999702e+03, 4.161025999999999840e+03, 1.000000000000000000e+00, 1.000000000000000000e+00, 1.000000000000000000e+02
2.100000000000000000e+01, 4.203590000000000146e+03, 4.217435999999999694e+03, 4.106667000000000371e+03, 4.197435999999999694e+03, 4.177948999999999614e+03, 1.000000000000000000e+00, 1.000000000000000000e+00, 1.000000000000000000e+02
2.200000000000000000e+01, 4.202564000000000306e+03, 4.227692000000000007e+03, 4.101025999999999840e+03, 4.210769000000000233e+03, 4.171795000000000073e+03, 1.000000000000000000e+00, 1.000000000000000000e+00, 1.000000000000000000e+02
2.300000000000000000e+01, 4.185640999999999622e+03, 4.223590000000000146e+03, 4.099487000000000080e+03, 4.206667000000000371e+03, 4.162051000000000386e+03, 1.000000000000000000e+00, 1.000000000000000000e+00, 1.000000000000000000e+02
2.400000000000000000e+01, 4.194872000000000298e+03, 4.223590000000000146e+03, 4.117948999999999614e+03, 4.202564000000000306e+03, 4.177948999999999614e+03, 1.000000000000000000e+00, 1.000000000000000000e+00, 1.000000000000000000e+02
2.500000000000000000e+01, 4.209743999999999687e+03, 4.221537999999999556e+03, 4.125640999999999622e+03, 4.213845999999999549e+03, 4.180512999999999920e+03, 1.000000000000000000e+00, 1.000000000000000000e+00, 1.000000000000000000e+02
2.600000000000000000e+01, 4.221537999999999556e+03, 4.219487000000000080e+03, 4.124103000000000065e+03, 4.222051000000000386e+03, 4.190256000000000313e+03, 1.000000000000000000e+00, 1.000000000000000000e+00, 1.000000000000000000e+02
2.700000000000000000e+01, 4.217948999999999614e+03, 4.221537999999999556e+03, 4.117948999999999614e+03, 4.204614999999999782e+03, 4.194359000000000378e+03, 1.000000000000000000e+00, 1.000000000000000000e+00, 1.000000000000000000e+02
2.800000000000000000e+01, 4.203590000000000146e+03, 4.219487000000000080e+03, 4.104614999999999782e+03, 4.189230999999999767e+03, 4.177435999999999694e+03, 1.000000000000000000e+00, 1.000000000000000000e+00, 1.000000000000000000e+02
2.900000000000000000e+01, 4.204614999999999782e+03, 4.223590000000000146e+03, 4.098974000000000160e+03, 4.202051000000000386e+03, 4.177435999999999694e+03, 1.000000000000000000e+00, 1.000000000000000000e+00, 1.000000000000000000e+02
3.000000000000000000e+01, 4.215385000000000218e+03, 4.225640999999999622e+03, 4.105127999999999702e+03, 4.212307999999999993e+03, 4.180512999999999920e+03, 1.000000000000000000e+00, 1.000000000000000000e+00, 1.000000000000000000e+02
3.100000000000000000e+01, 4.247179000000000087e+03, 4.229743999999999687e+03, 4.112820999999999913e+03, 4.204103000000000065e+03, 4.199487000000000080e+03, 1.000000000000000000e+00, 1.000000000000000000e+00, 1.000000000000000000e+02
3.200000000000000000e+01, 4.289743999999999687e+03, 4.242051000000000386e+03, 4.114359000000000378e+03, 4.206667000000000371e+03, 4.239487000000000080e+03, 1.000000000000000000e+00, 1.000000000000000000e+00, 1.000000000000000000e+02
3.300000000000000000e+01, 4.327179000000000087e+03, 4.231795000000000073e+03, 4.120512999999999920e+03, 4.213845999999999549e+03, 4.274359000000000378e+03, 1.000000000000000000e+00, 1.000000000000000000e+00, 1.000000000000000000e+02
3.400000000000000000e+01, 4.371282000000000153e+03, 4.219487000000000080e+03, 4.121537999999999556e+03, 4.206667000000000371e+03, 4.308717999999999847e+03, 1.000000000000000000e+00, 1.000000000000000000e+00, 1.000000000000000000e+02
3.500000000000000000e+01, 4.415385000000000218e+03, 4.242051000000000386e+03, 4.104103000000000065e+03, 4.215896999999999935e+03, 4.340512999999999920e+03, 1.000000000000000000e+00, 1.000000000000000000e+00, 1.000000000000000000e+02
3.600000000000000000e+01, 4.462051000000000386e+03, 4.260512999999999920e+03, 4.101537999999999556e+03, 4.236409999999999854e+03, 4.377948999999999614e+03, 1.000000000000000000e+00, 1.000000000000000000e+00, 1.000000000000000000e+02
3.700000000000000000e+01, 4.494359000000000378e+03, 4.250256000000000313e+03, 4.115896999999999935e+03, 4.232307999999999993e+03, 4.404103000000000065e+03, 1.000000000000000000e+00, 1.000000000000000000e+00, 1.000000000000000000e+02
3.800000000000000000e+01, 4.507692000000000007e+03, 4.248204999999999927e+03, 4.117435999999999694e+03, 4.221025999999999840e+03, 4.415385000000000218e+03, 1.000000000000000000e+00, 1.000000000000000000e+00, 1.000000000000000000e+02
3.900000000000000000e+01, 4.509230999999999767e+03, 4.237948999999999614e+03, 4.106154000000000451e+03, 4.222564000000000306e+03, 4.418974000000000160e+03, 1.000000000000000000e+00, 1.000000000000000000e+00, 1.000000000000000000e+02
4.000000000000000000e+01, 4.486154000000000451e+03, 4.213332999999999629e+03, 4.105640999999999622e+03, 4.214359000000000378e+03, 4.394872000000000298e+03, 1.000000000000000000e+00, 1.000000000000000000e+00, 1.000000000000000000e+02
4.100000000000000000e+01, 4.475385000000000218e+03, 4.227692000000000007e+03, 4.118974000000000160e+03, 4.213332999999999629e+03, 4.391795000000000073e+03, 1.000000000000000000e+00, 1.000000000000000000e+00, 1.000000000000000000e+02
4.200000000000000000e+01, 4.468204999999999927e+03, 4.254359000000000378e+03, 4.115896999999999935e+03, 4.228717999999999847e+03, 4.392820999999999913e+03, 1.000000000000000000e+00, 1.000000000000000000e+00, 1.000000000000000000e+02
4.300000000000000000e+01, 4.429743999999999687e+03, 4.248204999999999927e+03, 4.101025999999999840e+03, 4.232820999999999913e+03, 4.356409999999999854e+03, 1.000000000000000000e+00, 1.000000000000000000e+00, 1.000000000000000000e+02
4.400000000000000000e+01, 4.397948999999999614e+03, 4.237948999999999614e+03, 4.104614999999999782e+03, 4.228204999999999927e+03, 4.334872000000000298e+03, 1.000000000000000000e+00, 1.000000000000000000e+00, 1.000000000000000000e+02
4.500000000000000000e+01, 4.376922999999999774e+03, 4.227692000000000007e+03, 4.114359000000000378e+03, 4.223590000000000146e+03, 4.320512999999999920e+03, 1.000000000000000000e+00, 1.000000000000000000e+00, 1.000000000000000000e+02
4.600000000000000000e+01, 4.360000000000000000e+03, 4.219487000000000080e+03, 4.114359000000000378e+03, 4.214359000000000378e+03, 4.299487000000000080e+03, 1.000000000000000000e+00, 1.000000000000000000e+00, 1.000000000000000000e+02
4.700000000000000000e+01, 4.342051000000000386e+03, 4.229743999999999687e+03, 4.109230999999999767e+03, 4.208204999999999927e+03, 4.286154000000000451e+03, 1.000000000000000000e+00, 1.000000000000000000e+00, 1.000000000000000000e+02
4.800000000000000000e+01, 4.322051000000000386e+03, 4.233845999999999549e+03, 4.109230999999999767e+03, 4.211282000000000153e+03, 4.273845999999999549e+03, 1.000000000000000000e+00, 1.000000000000000000e+00, 1.000000000000000000e+02
4.900000000000000000e+01, 4.313845999999999549e+03, 4.223590000000000146e+03, 4.106667000000000371e+03, 4.217948999999999614e+03, 4.267179000000000087e+03, 1.000000000000000000e+00, 1.000000000000000000e+00, 1.000000000000000000e+02
5.000000000000000000e+01, 4.296409999999999854e+03, 4.219487000000000080e+03, 4.094871999999999844e+03, 4.212820999999999913e+03, 4.249743999999999687e+03, 1.000000000000000000e+00, 1.000000000000000000e+00, 1.000000000000000000e+02
5.100000000000000000e+01, 4.275896999999999935e+03, 4.219487000000000080e+03, 4.094871999999999844e+03, 4.205127999999999702e+03, 4.241537999999999556e+03, 1.000000000000000000e+00, 1.000000000000000000e+00, 1.000000000000000000e+02
5.200000000000000000e+01, 4.264614999999999782e+03, 4.227692000000000007e+03, 4.097435999999999694e+03, 4.205640999999999622e+03, 4.234359000000000378e+03, 1.000000000000000000e+00, 1.000000000000000000e+00, 1.000000000000000000e+02
5.300000000000000000e+01, 4.254359000000000378e+03, 4.240000000000000000e+03, 4.090255999999999858e+03, 4.200512999999999920e+03, 4.212307999999999993e+03, 1.000000000000000000e+00, 1.000000000000000000e+00, 1.000000000000000000e+02
5.400000000000000000e+01, 4.254872000000000298e+03, 4.225640999999999622e+03, 4.091795000000000073e+03, 4.194359000000000378e+03, 4.210769000000000233e+03, 1.000000000000000000e+00, 1.000000000000000000e+00, 1.000000000000000000e+02
5.500000000000000000e+01, 4.240000000000000000e+03, 4.205127999999999702e+03, 4.092820999999999913e+03, 4.206667000000000371e+03, 4.201537999999999556e+03, 1.000000000000000000e+00, 1.000000000000000000e+00, 1.000000000000000000e+02
5.600000000000000000e+01, 4.222051000000000386e+03, 4.219487000000000080e+03, 4.095896999999999935e+03, 4.215385000000000218e+03, 4.186154000000000451e+03, 1.000000000000000000e+00, 1.000000000000000000e+00, 1.000000000000000000e+02
5.700000000000000000e+01, 4.220512999999999920e+03, 4.237948999999999614e+03, 4.106154000000000451e+03, 4.212307999999999993e+03, 4.190769000000000233e+03, 1.000000000000000000e+00, 1.000000000000000000e+00, 1.000000000000000000e+02
5.800000000000000000e+01, 4.207692000000000007e+03, 4.221537999999999556e+03, 4.106154000000000451e+03, 4.210769000000000233e+03, 4.186667000000000371e+03, 1.000000000000000000e+00, 1.000000000000000000e+00, 1.000000000000000000e+02
5.900000000000000000e+01, 4.203077000000000226e+03, 4.213332999999999629e+03, 4.104614999999999782e+03, 4.210256000000000313e+03, 4.182564000000000306e+03, 1.000000000000000000e+00, 1.000000000000000000e+00, 1.000000000000000000e+02
6.000000000000000000e+01, 4.202564000000000306e+03, 4.219487000000000080e+03, 4.107179000000000087e+03, 4.203077000000000226e+03, 4.179487000000000080e+03, 1.000000000000000000e+00, 1.000000000000000000e+00, 1.000000000000000000e+02
6.100000000000000000e+01, 4.195896999999999935e+03, 4.207179000000000087e+03, 4.106154000000000451e+03, 4.189230999999999767e+03, 4.181025999999999840e+03, 1.000000000000000000e+00, 1.000000000000000000e+00, 1.000000000000000000e+02
6.200000000000000000e+01, 4.198462000000000444e+03, 4.196922999999999774e+03, 4.103590000000000146e+03, 4.184614999999999782e+03, 4.189743999999999687e+03, 1.000000000000000000e+00, 1.000000000000000000e+00, 1.000000000000000000e+02
6.300000000000000000e+01, 4.202564000000000306e+03, 4.211282000000000153e+03, 4.104103000000000065e+03, 4.196409999999999854e+03, 4.183590000000000146e+03, 1.000000000000000000e+00, 1.000000000000000000e+00, 1.000000000000000000e+02
6.400000000000000000e+01, 4.214872000000000298e+03, 4.223590000000000146e+03, 4.109230999999999767e+03, 4.201537999999999556e+03, 4.188717999999999847e+03, 1.000000000000000000e+00, 1.000000000000000000e+00, 1.000000000000000000e+02
6.500000000000000000e+01, 4.234872000000000298e+03, 4.223590000000000146e+03, 4.102564000000000306e+03, 4.193332999999999629e+03, 4.205127999999999702e+03, 1.000000000000000000e+00, 1.000000000000000000e+00, 1.000000000000000000e+02
6.600000000000000000e+01, 4.273845999999999549e+03, 4.223590000000000146e+03, 4.091795000000000073e+03, 4.194872000000000298e+03, 4.233332999999999629e+03, 1.000000000000000000e+00, 1.000000000000000000e+00, 1.000000000000000000e+02
6.700000000000000000e+01, 4.330256000000000313e+03, 4.217435999999999694e+03, 4.097435999999999694e+03, 4.203590000000000146e+03, 4.287179000000000087e+03, 1.000000000000000000e+00, 1.000000000000000000e+00, 1.000000000000000000e+02
6.800000000000000000e+01, 4.373845999999999549e+03, 4.219487000000000080e+03, 4.107692000000000007e+03, 4.208204999999999927e+03, 4.331795000000000073e+03, 1.000000000000000000e+00, 1.000000000000000000e+00, 1.000000000000000000e+02
6.900000000000000000e+01, 4.414872000000000298e+03, 4.231795000000000073e+03, 4.112307999999999993e+03, 4.218462000000000444e+03, 4.365127999999999702e+03, 1.000000000000000000e+00, 1.000000000000000000e+00, 1.000000000000000000e+02
7.000000000000000000e+01, 4.447179000000000087e+03, 4.233845999999999549e+03, 4.113332999999999629e+03, 4.228204999999999927e+03, 4.389743999999999687e+03, 1.000000000000000000e+00, 1.000000000000000000e+00, 1.000000000000000000e+02
7.100000000000000000e+01, 4.456409999999999854e+03, 4.227692000000000007e+03, 4.113845999999999549e+03, 4.234359000000000378e+03, 4.407179000000000087e+03, 1.000000000000000000e+00, 1.000000000000000000e+00, 1.000000000000000000e+02
7.200000000000000000e+01, 4.462051000000000386e+03, 4.231795000000000073e+03, 4.117948999999999614e+03, 4.237948999999999614e+03, 4.425640999999999622e+03, 1.000000000000000000e+00, 1.000000000000000000e+00, 1.000000000000000000e+02
7.300000000000000000e+01, 4.455896999999999935e+03, 4.233845999999999549e+03, 4.117948999999999614e+03, 4.221025999999999840e+03, 4.415385000000000218e+03, 1.000000000000000000e+00, 1.000000000000000000e+00, 1.000000000000000000e+02
7.400000000000000000e+01, 4.435385000000000218e+03, 4.227692000000000007e+03, 4.117435999999999694e+03, 4.206667000000000371e+03, 4.394872000000000298e+03, 1.000000000000000000e+00, 1.000000000000000000e+00, 1.000000000000000000e+02
7.500000000000000000e+01, 4.407692000000000007e+03, 4.233845999999999549e+03, 4.119487000000000080e+03, 4.225640999999999622e+03, 4.378462000000000444e+03, 1.000000000000000000e+00, 1.000000000000000000e+00, 1.000000000000000000e+02
7.600000000000000000e+01, 4.380000000000000000e+03, 4.231795000000000073e+03, 4.122564000000000306e+03, 4.234359000000000378e+03, 4.353332999999999629e+03, 1.000000000000000000e+00, 1.000000000000000000e+00, 1.000000000000000000e+02
7.700000000000000000e+01, 4.360512999999999920e+03, 4.219487000000000080e+03, 4.121537999999999556e+03, 4.223590000000000146e+03, 4.334872000000000298e+03, 1.000000000000000000e+00, 1.000000000000000000e+00, 1.000000000000000000e+02
7.800000000000000000e+01, 4.333332999999999629e+03, 4.221537999999999556e+03, 4.110769000000000233e+03, 4.222051000000000386e+03, 4.310256000000000313e+03, 1.000000000000000000e+00, 1.000000000000000000e+00, 1.000000000000000000e+02
7.900000000000000000e+01, 4.304103000000000065e+03, 4.225640999999999622e+03, 4.105127999999999702e+03, 4.218974000000000160e+03, 4.287692000000000007e+03, 1.000000000000000000e+00, 1.000000000000000000e+00, 1.000000000000000000e+02
8.000000000000000000e+01, 4.274872000000000298e+03, 4.219487000000000080e+03, 4.108717999999999847e+03, 4.214872000000000298e+03, 4.269230999999999767e+03, 1.000000000000000000e+00, 1.000000000000000000e+00, 1.000000000000000000e+02
8.100000000000000000e+01, 4.253332999999999629e+03, 4.213332999999999629e+03, 4.113332999999999629e+03, 4.228717999999999847e+03, 4.244614999999999782e+03, 1.000000000000000000e+00, 1.000000000000000000e+00, 1.000000000000000000e+02
8.200000000000000000e+01, 4.251795000000000073e+03, 4.203077000000000226e+03, 4.117948999999999614e+03, 4.240512999999999920e+03, 4.235896999999999935e+03, 1.000000000000000000e+00, 1.000000000000000000e+00, 1.000000000000000000e+02
8.300000000000000000e+01, 4.234872000000000298e+03, 4.201025999999999840e+03, 4.118974000000000160e+03, 4.229743999999999687e+03, 4.223590000000000146e+03, 1.000000000000000000e+00, 1.000000000000000000e+00, 1.000000000000000000e+02
8.400000000000000000e+01, 4.214359000000000378e+03, 4.221537999999999556e+03, 4.120512999999999920e+03, 4.220512999999999920e+03, 4.208204999999999927e+03, 1.000000000000000000e+00, 1.000000000000000000e+00, 1.000000000000000000e+02
8.500000000000000000e+01, 4.197948999999999614e+03, 4.227692000000000007e+03, 4.105640999999999622e+03, 4.218462000000000444e+03, 4.191795000000000073e+03, 1.000000000000000000e+00, 1.000000000000000000e+00, 1.000000000000000000e+02
8.600000000000000000e+01, 4.182051000000000386e+03, 4.211282000000000153e+03, 4.090768999999999778e+03, 4.210769000000000233e+03, 4.176409999999999854e+03, 1.000000000000000000e+00, 1.000000000000000000e+00, 1.000000000000000000e+02
8.700000000000000000e+01, 4.188204999999999927e+03, 4.207179000000000087e+03, 4.095385000000000218e+03, 4.201025999999999840e+03, 4.184614999999999782e+03, 1.000000000000000000e+00, 1.000000000000000000e+00, 1.000000000000000000e+02
8.800000000000000000e+01, 4.187179000000000087e+03, 4.205127999999999702e+03, 4.088204999999999927e+03, 4.198462000000000444e+03, 4.177948999999999614e+03, 1.000000000000000000e+00, 1.000000000000000000e+00, 1.000000000000000000e+02
8.900000000000000000e+01, 4.175385000000000218e+03, 4.194872000000000298e+03, 4.077949000000000069e+03, 4.206154000000000451e+03, 4.166667000000000371e+03, 1.000000000000000000e+00, 1.000000000000000000e+00, 1.000000000000000000e+02
9.000000000000000000e+01, 4.166667000000000371e+03, 4.196922999999999774e+03, 4.084614999999999782e+03, 4.208204999999999927e+03, 4.169230999999999767e+03, 1.000000000000000000e+00, 1.000000000000000000e+00, 1.000000000000000000e+02
9.100000000000000000e+01, 4.155896999999999935e+03, 4.211282000000000153e+03, 4.096922999999999774e+03, 4.202051000000000386e+03, 4.158974000000000160e+03, 1.000000000000000000e+00, 1.000000000000000000e+00, 1.000000000000000000e+02
9.200000000000000000e+01, 4.156409999999999854e+03, 4.213332999999999629e+03, 4.103077000000000226e+03, 4.203077000000000226e+03, 4.150256000000000313e+03, 1.000000000000000000e+00, 1.000000000000000000e+00, 1.000000000000000000e+02
9.300000000000000000e+01, 4.152820999999999913e+03, 4.203077000000000226e+03, 4.104614999999999782e+03, 4.208204999999999927e+03, 4.143077000000000226e+03, 1.000000000000000000e+00, 1.000000000000000000e+00, 1.000000000000000000e+02
9.400000000000000000e+01, 4.146154000000000451e+03, 4.205127999999999702e+03, 4.118974000000000160e+03, 4.210256000000000313e+03, 4.143590000000000146e+03, 1.000000000000000000e+00, 1.000000000000000000e+00, 1.000000000000000000e+02
9.500000000000000000e+01, 4.145127999999999702e+03, 4.207179000000000087e+03, 4.127692000000000007e+03, 4.222564000000000306e+03, 4.150256000000000313e+03, 1.000000000000000000e+00, 1.000000000000000000e+00, 1.000000000000000000e+02
9.600000000000000000e+01, 4.134359000000000378e+03, 4.203077000000000226e+03, 4.118974000000000160e+03, 4.230256000000000313e+03, 4.138974000000000160e+03, 1.000000000000000000e+00, 1.000000000000000000e+00, 1.000000000000000000e+02
9.700000000000000000e+01, 4.134872000000000298e+03, 4.207179000000000087e+03, 4.114872000000000298e+03, 4.221025999999999840e+03, 4.130769000000000233e+03, 1.000000000000000000e+00, 1.000000000000000000e+00, 1.000000000000000000e+02
9.800000000000000000e+01, 4.137435999999999694e+03, 4.207179000000000087e+03, 4.112307999999999993e+03, 4.215896999999999935e+03, 4.123077000000000226e+03, 1.000000000000000000e+00, 1.000000000000000000e+00, 1.000000000000000000e+02
9.900000000000000000e+01, 4.133332999999999629e+03, 4.203077000000000226e+03, 4.105640999999999622e+03, 4.211282000000000153e+03, 4.123590000000000146e+03, 1.000000000000000000e+00, 1.000000000000000000e+00, 1.000000000000000000e+02
1.000000000000000000e+02, 4.133332999999999629e+03, 4.203077000000000226e+03, 4.092820999999999913e+03, 4.189230999999999767e+03, 4.135896999999999935e+03, 1.000000000000000000e+00, 1.000000000000000000e+00, 1.000000000000000000e+02
1.010000000000000000e+02, 4.120000000000000000e+03, 4.190769000000000233e+03, 4.077436000000000149e+03, 4.178974000000000160e+03, 4.121537999999999556e+03, 1.000000000000000000e+00, 1.000000000000000000e+00, 1.000000000000000000e+02
1.020000000000000000e+02, 4.112307999999999993e+03, 4.190769000000000233e+03, 4.081538000000000011e+03, 4.199487000000000080e+03, 4.113845999999999549e+03, 1.000000000000000000e+00, 1.000000000000000000e+00, 1.000000000000000000e+02
1.030000000000000000e+02, 4.118462000000000444e+03, 4.184614999999999782e+03, 4.085641000000000076e+03, 4.201537999999999556e+03, 4.117435999999999694e+03, 1.000000000000000000e+00, 1.000000000000000000e+00, 1.000000000000000000e+02
1.040000000000000000e+02, 4.125127999999999702e+03, 4.131282000000000153e+03, 4.074358999999999924e+03, 4.184103000000000065e+03, 4.114872000000000298e+03, 1.000000000000000000e+00, 1.000000000000000000e+00, 1.000000000000000000e+02
1.050000000000000000e+02, 4.127692000000000007e+03, 4.090255999999999858e+03, 4.069744000000000142e+03, 4.182051000000000386e+03, 4.117948999999999614e+03, 1.000000000000000000e+00, 1.000000000000000000e+00, 1.000000000000000000e+02
1.060000000000000000e+02, 4.116922999999999774e+03, 4.098462000000000444e+03, 4.083077000000000226e+03, 4.182051000000000386e+03, 4.112820999999999913e+03, 1.000000000000000000e+00, 1.000000000000000000e+00, 1.000000000000000000e+02
1.070000000000000000e+02, 4.120512999999999920e+03, 4.100512999999999920e+03, 4.097948999999999614e+03, 4.188204999999999927e+03, 4.120512999999999920e+03, 1.000000000000000000e+00, 1.000000000000000000e+00, 1.000000000000000000e+02
1.080000000000000000e+02, 4.128204999999999927e+03, 4.098462000000000444e+03, 4.097948999999999614e+03, 4.210256000000000313e+03, 4.133332999999999629e+03, 1.000000000000000000e+00, 1.000000000000000000e+00, 1.000000000000000000e+02
1.090000000000000000e+02, 4.123077000000000226e+03, 4.106667000000000371e+03, 4.096922999999999774e+03, 4.217435999999999694e+03, 4.125640999999999622e+03, 1.000000000000000000e+00, 1.000000000000000000e+00, 1.000000000000000000e+02
1.100000000000000000e+02, 4.130769000000000233e+03, 4.096409999999999854e+03, 4.101537999999999556e+03, 4.212820999999999913e+03, 4.120512999999999920e+03, 1.000000000000000000e+00, 1.000000000000000000e+00, 1.000000000000000000e+02
1.110000000000000000e+02, 4.131795000000000073e+03, 4.088204999999999927e+03, 4.095896999999999935e+03, 4.211282000000000153e+03, 4.111282000000000153e+03, 1.000000000000000000e+00, 1.000000000000000000e+00, 1.000000000000000000e+02
1.120000000000000000e+02, 4.125127999999999702e+03, 4.092307999999999993e+03, 4.084103000000000065e+03, 4.203077000000000226e+03, 4.108717999999999847e+03, 1.000000000000000000e+00, 1.000000000000000000e+00, 1.000000000000000000e+02
1.130000000000000000e+02, 4.124103000000000065e+03, 4.092307999999999993e+03, 4.082563999999999851e+03, 4.195385000000000218e+03, 4.114359000000000378e+03, 1.000000000000000000e+00, 1.000000000000000000e+00, 1.000000000000000000e+02
1.140000000000000000e+02, 4.121537999999999556e+03, 4.090255999999999858e+03, 4.084614999999999782e+03, 4.203077000000000226e+03, 4.111282000000000153e+03, 1.000000000000000000e+00, 1.000000000000000000e+00, 1.000000000000000000e+02
1.150000000000000000e+02, 4.118462000000000444e+03, 4.098462000000000444e+03, 4.079487000000000080e+03, 4.201537999999999556e+03, 4.107692000000000007e+03, 1.000000000000000000e+00, 1.000000000000000000e+00, 1.000000000000000000e+02
1.160000000000000000e+02, 4.111795000000000073e+03, 4.100512999999999920e+03, 4.075896999999999935e+03, 4.186154000000000451e+03, 4.101025999999999840e+03, 1.000000000000000000e+00, 1.000000000000000000e+00, 1.000000000000000000e+02
1.170000000000000000e+02, 4.118974000000000160e+03, 4.086153999999999996e+03, 4.087179000000000087e+03, 4.185640999999999622e+03, 4.111282000000000153e+03, 1.000000000000000000e+00, 1.000000000000000000e+00, 1.000000000000000000e+02
1.180000000000000000e+02, 4.121537999999999556e+03, 4.084103000000000065e+03, 4.093846000000000004e+03, 4.192307999999999993e+03, 4.114872000000000298e+03, 1.000000000000000000e+00, 1.000000000000000000e+00, 1.000000000000000000e+02
1.190000000000000000e+02, 4.111282000000000153e+03, 4.102564000000000306e+03, 4.092307999999999993e+03, 4.183077000000000226e+03, 4.102051000000000386e+03, 1.000000000000000000e+00, 1.000000000000000000e+00, 1.000000000000000000e+02
1.200000000000000000e+02, 4.117948999999999614e+03, 4.114872000000000298e+03, 4.096409999999999854e+03, 4.175896999999999935e+03, 4.113332999999999629e+03, 1.000000000000000000e+00, 1.000000000000000000e+00, 1.000000000000000000e+02
1.210000000000000000e+02, 4.123590000000000146e+03, 4.104614999999999782e+03, 4.090768999999999778e+03, 4.191282000000000153e+03, 4.118974000000000160e+03, 1.000000000000000000e+00, 1.000000000000000000e+00, 1.000000000000000000e+02
1.220000000000000000e+02, 4.127179000000000087e+03, 4.106667000000000371e+03, 4.083590000000000146e+03, 4.198462000000000444e+03, 4.115385000000000218e+03, 1.000000000000000000e+00, 1.000000000000000000e+00, 1.000000000000000000e+02
1.230000000000000000e+02, 4.130256000000000313e+03, 4.114872000000000298e+03, 4.080000000000000000e+03, 4.191282000000000153e+03, 4.118974000000000160e+03, 1.000000000000000000e+00, 1.000000000000000000e+00, 1.000000000000000000e+02
1.240000000000000000e+02, 4.124614999999999782e+03, 4.090255999999999858e+03, 4.070768999999999778e+03, 4.197948999999999614e+03, 4.115385000000000218e+03, 1.000000000000000000e+00, 1.000000000000000000e+00, 1.000000000000000000e+02
1.250000000000000000e+02, 4.126154000000000451e+03, 4.086153999999999996e+03, 4.069231000000000222e+03, 4.197948999999999614e+03, 4.115896999999999935e+03, 1.000000000000000000e+00, 1.000000000000000000e+00, 1.000000000000000000e+02
1.260000000000000000e+02, 4.121025999999999840e+03, 4.112820999999999913e+03, 4.071282000000000153e+03, 4.183077000000000226e+03, 4.107692000000000007e+03, 1.000000000000000000e+00, 1.000000000000000000e+00, 1.000000000000000000e+02
1.270000000000000000e+02, 4.115385000000000218e+03, 4.104614999999999782e+03, 4.070768999999999778e+03, 4.183590000000000146e+03, 4.102564000000000306e+03, 1.000000000000000000e+00, 1.000000000000000000e+00, 1.000000000000000000e+02
0.000000000000000000e+00, 4.128204999999999927e+03, 4.088204999999999927e+03, 4.072307999999999993e+03, 4.194359000000000378e+03, 4.115385000000000218e+03, 1.000000000000000000e+00, 1.000000000000000000e+00, 1.000000000000000000e+02
1.000000000000000000e+00, 4.135385000000000218e+03, 4.112820999999999913e+03, 4.074358999999999924e+03, 4.197948999999999614e+03, 4.118462000000000444e+03, 1.000000000000000000e+00, 1.000000000000000000e+00, 1.000000000000000000e+02
2.000000000000000000e+00, 4.136409999999999854e+03, 4.125127999999999702e+03, 4.075385000000000218e+03, 4.199487000000000080e+03, 4.124614999999999782e+03, 1.000000000000000000e+00, 1.000000000000000000e+00, 1.000000000000000000e+02
3.000000000000000000e+00, 4.132820999999999913e+03, 4.108717999999999847e+03, 4.080000000000000000e+03, 4.198974000000000160e+03, 4.130769000000000233e+03, 1.000000000000000000e+00, 1.000000000000000000e+00, 1.000000000000000000e+02
4.000000000000000000e+00, 4.141025999999999840e+03, 4.121025999999999840e+03, 4.095385000000000218e+03, 4.198974000000000160e+03, 4.137948999999999614e+03, 1.000000000000000000e+00, 1.000000000000000000e+00, 1.000000000000000000e+02
5.000000000000000000e+00, 4.157948999999999614e+03, 4.145640999999999622e+03, 4.105127999999999702e+03, 4.203590000000000146e+03, 4.146667000000000371e+03, 1.000000000000000000e+00, 1.000000000000000000e+00, 1.000000000000000000e+02
6.000000000000000000e+00, 4.152307999999999993e+03, 4.139487000000000080e+03, 4.090768999999999778e+03, 4.202564000000000306e+03, 4.130769000000000233e+03, 1.000000000000000000e+00, 1.000000000000000000e+00, 1.000000000000000000e+02
7.000000000000000000e+00, 4.147179000000000087e+03, 4.123077000000000226e+03, 4.076922999999999774e+03, 4.200512999999999920e+03, 4.126667000000000371e+03, 1.000000000000000000e+00, 1.000000000000000000e+00, 1.000000000000000000e+02
8.000000000000000000e+00, 4.133332999999999629e+03, 4.121025999999999840e+03, 4.067692000000000007e+03, 4.200000000000000000e+03, 4.125127999999999702e+03, 1.000000000000000000e+00, 1.000000000000000000e+00, 1.000000000000000000e+02
9.000000000000000000e+00, 4.117948999999999614e+03, 4.118974000000000160e+03, 4.063077000000000226e+03, 4.183077000000000226e+03, 4.113845999999999549e+03, 1.000000000000000000e+00, 1.000000000000000000e+00, 1.000000000000000000e+02
1.000000000000000000e+01, 4.130769000000000233e+03, 4.110769000000000233e+03, 4.066666999999999916e+03, 4.171282000000000153e+03, 4.123590000000000146e+03, 1.000000000000000000e+00, 1.000000000000000000e+00, 1.000000000000000000e+02
1.100000000000000000e+01, 4.137435999999999694e+03, 4.104614999999999782e+03, 4.066666999999999916e+03, 4.187692000000000007e+03, 4.129743999999999687e+03, 1.000000000000000000e+00, 1.000000000000000000e+00, 1.000000000000000000e+02
1.200000000000000000e+01, 4.139487000000000080e+03, 4.112820999999999913e+03, 4.074358999999999924e+03, 4.207692000000000007e+03, 4.135385000000000218e+03, 1.000000000000000000e+00, 1.000000000000000000e+00, 1.000000000000000000e+02
1.300000000000000000e+01, 4.142051000000000386e+03, 4.135385000000000218e+03, 4.082563999999999851e+03, 4.206154000000000451e+03, 4.140512999999999920e+03, 1.000000000000000000e+00, 1.000000000000000000e+00, 1.000000000000000000e+02
1.400000000000000000e+01, 4.138974000000000160e+03, 4.137435999999999694e+03, 4.079487000000000080e+03, 4.197435999999999694e+03, 4.136922999999999774e+03, 1.000000000000000000e+00, 1.000000000000000000e+00, 1.000000000000000000e+02
1.500000000000000000e+01, 4.144614999999999782e+03, 4.131282000000000153e+03, 4.081025999999999840e+03, 4.200000000000000000e+03, 4.143590000000000146e+03, 1.000000000000000000e+00, 1.000000000000000000e+00, 1.000000000000000000e+02
1.600000000000000000e+01, 4.157948999999999614e+03, 4.135385000000000218e+03, 4.093846000000000004e+03, 4.203590000000000146e+03, 4.150769000000000233e+03, 1.000000000000000000e+00, 1.000000000000000000e+00, 1.000000000000000000e+02
1.700000000000000000e+01, 4.170256000000000313e+03, 4.143590000000000146e+03, 4.101025999999999840e+03, 4.196409999999999854e+03, 4.158462000000000444e+03, 1.000000000000000000e+00, 1.000000000000000000e+00, 1.000000000000000000e+02
1.800000000000000000e+01, 4.162051000000000386e+03, 4.137435999999999694e+03, 4.090255999999999858e+03, 4.198974000000000160e+03, 4.148204999999999927e+03, 1.000000000000000000e+00, 1.000000000000000000e+00, 1.000000000000000000e+02
1.900000000000000000e+01, 4.149743999999999687e+03, 4.131282000000000153e+03, 4.078461999999999989e+03, 4.209743999999999687e+03, 4.136922999999999774e+03, 1.000000000000000000e+00, 1.000000000000000000e+00, 1.000000000000000000e+02
2.000000000000000000e+01, 4.154359000000000378e+03, 4.137435999999999694e+03, 4.069231000000000222e+03, 4.204103000000000065e+03, 4.146667000000000371e+03, 1.000000000000000000e+00, 1.000000000000000000e+00, 1.000000000000000000e+02
2.100000000000000000e+01, 4.148717999999999847e+03, 4.141537999999999556e+03, 4.063077000000000226e+03, 4.192820999999999913e+03, 4.138462000000000444e+03, 1.000000000000000000e+00, 1.000000000000000000e+00, 1.000000000000000000e+02
2.200000000000000000e+01, 4.146667000000000371e+03, 4.143590000000000146e+03, 4.073846000000000004e+03, 4.192820999999999913e+03, 4.134872000000000298e+03, 1.000000000000000000e+00, 1.000000000000000000e+00, 1.000000000000000000e+02
2.300000000000000000e+01, 4.153845999999999549e+03, 4.145640999999999622e+03, 4.080512999999999920e+03, 4.194872000000000298e+03, 4.145127999999999702e+03, 1.000000000000000000e+00, 1.000000000000000000e+00, 1.000000000000000000e+02
2.400000000000000000e+01, 4.155385000000000218e+03, 4.137435999999999694e+03, 4.079487000000000080e+03, 4.194872000000000298e+03, 4.143077000000000226e+03, 1.000000000000000000e+00, 1.000000000000000000e+00, 1.000000000000000000e+02
2.500000000000000000e+01, 4.162051000000000386e+03, 4.127179000000000087e+03, 4.089231000000000222e+03, 4.200000000000000000e+03, 4.148204999999999927e+03, 1.000000000000000000e+00, 1.000000000000000000e+00, 1.000000000000000000e+02
2.600000000000000000e+01, 4.163077000000000226e+03, 4.141537999999999556e+03, 4.092820999999999913e+03, 4.202051000000000386e+03, 4.152307999999999993e+03, 1.000000000000000000e+00, 1.000000000000000000e+00, 1.000000000000000000e+02
2.700000000000000000e+01, 4.161025999999999840e+03, 4.162051000000000386e+03, 4.086666999999999916e+03, 4.201537999999999556e+03, 4.154872000000000298e+03, 1.000000000000000000e+00, 1.000000000000000000e+00, 1.000000000000000000e+02
2.800000000000000000e+01, 4.157948999999999614e+03, 4.155896999999999935e+03, 4.086153999999999996e+03, 4.200000000000000000e+03, 4.155896999999999935e+03, 1.000000000000000000e+00, 1.000000000000000000e+00, 1.000000000000000000e+02
2.900000000000000000e+01, 4.156409999999999854e+03, 4.151795000000000073e+03, 4.096409999999999854e+03, 4.192307999999999993e+03, 4.154359000000000378e+03, 1.000000000000000000e+00, 1.000000000000000000e+00, 1.000000000000000000e+02
3.000000000000000000e+01, 4.165127999999999702e+03, 4.157948999999999614e+03, 4.097435999999999694e+03, 4.194359000000000378e+03, 4.161537999999999556e+03, 1.000000000000000000e+00, 1.000000000000000000e+00, 1.000000000000000000e+02
3.100000000000000000e+01, 4.154359000000000378e+03, 4.137435999999999694e+03, 4.077949000000000069e+03, 4.189230999999999767e+03, 4.150769000000000233e+03, 1.000000000000000000e+00, 1.000000000000000000e+00, 1.000000000000000000e+02
3.200000000000000000e+01, 4.146667000000000371e+03, 4.116922999999999774e+03, 4.069231000000000222e+03, 4.178462000000000444e+03, 4.144614999999999782e+03, 1.000000000000000000e+00, 1.000000000000000000e+00, 1.000000000000000000e+02
3.300000000000000000e+01, 4.161025999999999840e+03, 4.137435999999999694e+03, 4.072820999999999913e+03, 4.190769000000000233e+03, 4.152307999999999993e+03, 1.000000000000000000e+00, 1.000000000000000000e+00, 1.000000000000000000e+02
3.400000000000000000e+01, 4.162051000000000386e+03, 4.157948999999999614e+03, 4.066666999999999916e+03, 4.194359000000000378e+03, 4.141025999999999840e+03, 1.000000000000000000e+00, 1.000000000000000000e+00, 1.000000000000000000e+02
3.500000000000000000e+01, 4.153332999999999629e+03, 4.149743999999999687e+03, 4.065128000000000156e+03, 4.173845999999999549e+03, 4.134359000000000378e+03, 1.000000000000000000e+00, 1.000000000000000000e+00, 1.000000000000000000e+02
3.600000000000000000e+01, 4.145640999999999622e+03, 4.155896999999999935e+03, 4.078461999999999989e+03, 4.181025999999999840e+03, 4.132820999999999913e+03, 1.000000000000000000e+00, 1.000000000000000000e+00, 1.000000000000000000e+02
3.700000000000000000e+01, 4.155896999999999935e+03, 4.166154000000000451e+03, 4.095385000000000218e+03, 4.213332999999999629e+03, 4.140000000000000000e+03, 1.000000000000000000e+00, 1.000000000000000000e+00, 1.000000000000000000e+02
3.800000000000000000e+01, 4.166667000000000371e+03, 4.145640999999999622e+03, 4.097948999999999614e+03, 4.217948999999999614e+03, 4.151795000000000073e+03, 1.000000000000000000e+00, 1.000000000000000000e+00, 1.000000000000000000e+02
3.900000000000000000e+01, 4.152820999999999913e+03, 4.133332999999999629e+03, 4.093333000000000084e+03, 4.202564000000000306e+03, 4.138974000000000160e+03, 1.000000000000000000e+00, 1.000000000000000000e+00, 1.000000000000000000e+02
4.000000000000000000e+01, 4.149743999999999687e+03, 4.155896999999999935e+03, 4.095896999999999935e+03, 4.194359000000000378e+03, 4.132820999999999913e+03, 1.000000000000000000e+00, 1.000000000000000000e+00, 1.000000000000000000e+02
4.100000000000000000e+01, 4.153332999999999629e+03, 4.172307999999999993e+03, 4.090255999999999858e+03, 4.186154000000000451e+03, 4.135385000000000218e+03, 1.000000000000000000e+00, 1.000000000000000000e+00, 1.000000000000000000e+02
4.200000000000000000e+01, 4.149230999999999767e+03, 4.151795000000000073e+03, 4.082563999999999851e+03, 4.184103000000000065e+03, 4.136409999999999854e+03, 1.000000000000000000e+00, 1.000000000000000000e+00, 1.000000000000000000e+02
4.300000000000000000e+01, 4.154359000000000378e+03, 4.139487000000000080e+03, 4.076922999999999774e+03, 4.198974000000000160e+03, 4.145640999999999622e+03, 1.000000000000000000e+00, 1.000000000000000000e+00, 1.000000000000000000e+02
4.400000000000000000e+01, 4.157435999999999694e+03, 4.153845999999999549e+03, 4.063077000000000226e+03, 4.201537999999999556e+03, 4.143077000000000226e+03, 1.000000000000000000e+00, 1.000000000000000000e+00, 1.000000000000000000e+02
4.500000000000000000e+01, 4.158974000000000160e+03, 4.153845999999999549e+03, 4.052820999999999913e+03, 4.182564000000000306e+03, 4.143077000000000226e+03, 1.000000000000000000e+00, 1.000000000000000000e+00, 1.000000000000000000e+02
4.600000000000000000e+01, 4.158462000000000444e+03, 4.141537999999999556e+03, 4.048204999999999927e+03, 4.174872000000000298e+03, 4.146154000000000451e+03, 1.000000000000000000e+00, 1.000000000000000000e+00, 1.000000000000000000e+02
4.700000000000000000e+01, 4.163077000000000226e+03, 4.151795000000000073e+03, 4.053846000000000004e+03, 4.175385000000000218e+03, 4.150256000000000313e+03, 1.000000000000000000e+00, 1.000000000000000000e+00, 1.000000000000000000e+02
4.800000000000000000e+01, 4.167692000000000007e+03, 4.166154000000000451e+03, 4.066153999999999996e+03, 4.174359000000000378e+03, 4.155385000000000218e+03, 1.000000000000000000e+00, 1.000000000000000000e+00, 1.000000000000000000e+02
4.900000000000000000e+01, 4.161537999999999556e+03, 4.157948999999999614e+03, 4.074871999999999844e+03, 4.187692000000000007e+03, 4.150256000000000313e+03, 1.000000000000000000e+00, 1.000000000000000000e+00, 1.000000000000000000e+02
5.000000000000000000e+01, 4.171282000000000153e+03, 4.164103000000000065e+03, 4.087179000000000087e+03, 4.206667000000000371e+03, 4.167692000000000007e+03, 1.000000000000000000e+00, 1.000000000000000000e+00, 1.000000000000000000e+02
5.100000000000000000e+01, 4.177948999999999614e+03, 4.176409999999999854e+03, 4.099487000000000080e+03, 4.214359000000000378e+03, 4.176922999999999774e+03, 1.000000000000000000e+00, 1.000000000000000000e+00, 1.000000000000000000e+02
5.200000000000000000e+01, 4.160512999999999920e+03, 4.155896999999999935e+03, 4.103077000000000226e+03, 4.214359000000000378e+03, 4.153845999999999549e+03, 1.000000000000000000e+00, 1.000000000000000000e+00, 1.000000000000000000e+02
5.300000000000000000e+01, 4.150256000000000313e+03, 4.149743999999999687e+03, 4.097948999999999614e+03, 4.201025999999999840e+03, 4.142564000000000306e+03, 1.000000000000000000e+00, 1.000000000000000000e+00, 1.000000000000000000e+02
5.400000000000000000e+01, 4.154359000000000378e+03, 4.176409999999999854e+03, 4.096922999999999774e+03, 4.187179000000000087e+03, 4.144103000000000065e+03, 1.000000000000000000e+00, 1.000000000000000000e+00, 1.000000000000000000e+02
5.500000000000000000e+01, 4.171795000000000073e+03, 4.186667000000000371e+03, 4.098462000000000444e+03, 4.198462000000000444e+03, 4.155385000000000218e+03, 1.000000000000000000e+00, 1.000000000000000000e+00, 1.000000000000000000e+02
5.600000000000000000e+01, 4.177435999999999694e+03, 4.164103000000000065e+03, 4.075896999999999935e+03, 4.206667000000000371e+03, 4.157948999999999614e+03, 1.000000000000000000e+00, 1.000000000000000000e+00, 1.000000000000000000e+02
5.700000000000000000e+01, 4.164614999999999782e+03, 4.149743999999999687e+03, 4.036922999999999774e+03, 4.188204999999999927e+03, 4.148717999999999847e+03, 1.000000000000000000e+00, 1.000000000000000000e+00, 1.000000000000000000e+02
5.800000000000000000e+01, 4.159487000000000080e+03, 4.145640999999999622e+03, 4.016922999999999774e+03, 4.171795000000000073e+03, 4.145640999999999622e+03, 1.000000000000000000e+00, 1.000000000000000000e+00, 1.000000000000000000e+02
5.900000000000000000e+01, 4.150769000000000233e+03, 4.143590000000000146e+03, 4.019487000000000080e+03, 4.167179000000000087e+03, 4.131795000000000073e+03, 1.000000000000000000e+00, 1.000000000000000000e+00, 1.000000000000000000e+02
6.000000000000000000e+01, 4.154872000000000298e+03, 4.160000000000000000e+03, 4.045128000000000156e+03, 4.164103000000000065e+03, 4.132307999999999993e+03, 1.000000000000000000e+00, 1.000000000000000000e+00, 1.000000000000000000e+02
6.100000000000000000e+01, 4.170256000000000313e+03, 4.174359000000000378e+03, 4.073846000000000004e+03, 4.174359000000000378e+03, 4.149743999999999687e+03, 1.000000000000000000e+00, 1.000000000000000000e+00, 1.000000000000000000e+02
6.200000000000000000e+01, 4.168204999999999927e+03, 4.168204999999999927e+03, 4.076922999999999774e+03, 4.191795000000000073e+03, 4.151795000000000073e+03, 1.000000000000000000e+00, 1.000000000000000000e+00, 1.000000000000000000e+02
6.300000000000000000e+01, 4.172820999999999913e+03, 4.166154000000000451e+03, 4.077436000000000149e+03, 4.193845999999999549e+03, 4.156409999999999854e+03, 1.000000000000000000e+00, 1.000000000000000000e+00, 1.000000000000000000e+02
6.400000000000000000e+01, 4.173332999999999629e+03, 4.170256000000000313e+03, 4.084103000000000065e+03, 4.184614999999999782e+03, 4.150769000000000233e+03, 1.000000000000000000e+00, 1.000000000000000000e+00, 1.000000000000000000e+02
6.500000000000000000e+01, 4.166154000000000451e+03, 4.164103000000000065e+03, 4.088717999999999847e+03, 4.177948999999999614e+03, 4.143590000000000146e+03, 1.000000000000000000e+00, 1.000000000000000000e+00, 1.000000000000000000e+02
6.600000000000000000e+01, 4.170256000000000313e+03, 4.162051000000000386e+03, 4.095896999999999935e+03, 4.178462000000000444e+03, 4.151795000000000073e+03, 1.000000000000000000e+00, 1.000000000000000000e+00, 1.000000000000000000e+02
6.700000000000000000e+01, 4.173845999999999549e+03, 4.176409999999999854e+03, 4.103077000000000226e+03, 4.189230999999999767e+03, 4.150769000000000233e+03, 1.000000000000000000e+00, 1.000000000000000000e+00, 1.000000000000000000e+02
6.800000000000000000e+01, 4.170769000000000233e+03, 4.180512999999999920e+03, 4.092307999999999993e+03, 4.201537999999999556e+03, 4.145127999999999702e+03, 1.000000000000000000e+00, 1.000000000000000000e+00, 1.000000000000000000e+02
6.900000000000000000e+01, 4.161537999999999556e+03, 4.168204999999999927e+03, 4.062563999999999851e+03, 4.194359000000000378e+03, 4.135896999999999935e+03, 1.000000000000000000e+00, 1.000000000000000000e+00, 1.000000000000000000e+02
7.000000000000000000e+01, 4.166667000000000371e+03, 4.160000000000000000e+03, 4.050768999999999778e+03, 4.183077000000000226e+03, 4.142051000000000386e+03, 1.000000000000000000e+00, 1.000000000000000000e+00, 1.000000000000000000e+02
7.100000000000000000e+01, 4.168717999999999847e+03, 4.160000000000000000e+03, 4.045641000000000076e+03, 4.182051000000000386e+03, 4.149743999999999687e+03, 1.000000000000000000e+00, 1.000000000000000000e+00, 1.000000000000000000e+02
7.200000000000000000e+01, 4.152820999999999913e+03, 4.145640999999999622e+03, 4.035385000000000218e+03, 4.162051000000000386e+03, 4.129743999999999687e+03, 1.000000000000000000e+00, 1.000000000000000000e+00, 1.000000000000000000e+02
7.300000000000000000e+01, 4.156922999999999774e+03, 4.147692000000000007e+03, 4.051282000000000153e+03, 4.150256000000000313e+03, 4.135385000000000218e+03, 1.000000000000000000e+00, 1.000000000000000000e+00, 1.000000000000000000e+02
7.400000000000000000e+01, 4.165640999999999622e+03, 4.178462000000000444e+03, 4.071795000000000073e+03, 4.177948999999999614e+03, 4.152820999999999913e+03, 1.000000000000000000e+00, 1.000000000000000000e+00, 1.000000000000000000e+02
7.500000000000000000e+01, 4.166667000000000371e+03, 4.180512999999999920e+03, 4.078974000000000160e+03, 4.193845999999999549e+03, 4.147179000000000087e+03, 1.000000000000000000e+00, 1.000000000000000000e+00, 1.000000000000000000e+02
7.600000000000000000e+01, 4.173845999999999549e+03, 4.160000000000000000e+03, 4.087692000000000007e+03, 4.179487000000000080e+03, 4.147692000000000007e+03, 1.000000000000000000e+00, 1.000000000000000000e+00, 1.000000000000000000e+02
7.700000000000000000e+01, 4.177435999999999694e+03, 4.168204999999999927e+03, 4.102051000000000386e+03, 4.185640999999999622e+03, 4.155385000000000218e+03, 1.000000000000000000e+00, 1.000000000000000000e+00, 1.000000000000000000e+02
7.800000000000000000e+01, 4.190769000000000233e+03, 4.184614999999999782e+03, 4.113332999999999629e+03, 4.200512999999999920e+03, 4.166667000000000371e+03, 1.000000000000000000e+00, 1.000000000000000000e+00, 1.000000000000000000e+02
7.900000000000000000e+01, 4.193332999999999629e+03, 4.170256000000000313e+03, 4.115385000000000218e+03, 4.186154000000000451e+03, 4.166667000000000371e+03, 1.000000000000000000e+00, 1.000000000000000000e+00, 1.000000000000000000e+02
8.000000000000000000e+01, 4.185127999999999702e+03, 4.162051000000000386e+03, 4.112820999999999913e+03, 4.182051000000000386e+03, 4.167179000000000087e+03, 1.000000000000000000e+00, 1.000000000000000000e+00, 1.000000000000000000e+02
8.100000000000000000e+01, 4.192307999999999993e+03, 4.176409999999999854e+03, 4.097948999999999614e+03, 4.201537999999999556e+03, 4.174872000000000298e+03, 1.000000000000000000e+00, 1.000000000000000000e+00, 1.000000000000000000e+02
8.200000000000000000e+01, 4.203590000000000146e+03, 4.178462000000000444e+03, 4.076409999999999854e+03, 4.200000000000000000e+03, 4.168204999999999927e+03, 1.000000000000000000e+00, 1.000000000000000000e+00, 1.000000000000000000e+02
8.300000000000000000e+01, 4.216922999999999774e+03, 4.170256000000000313e+03, 4.068717999999999847e+03, 4.184103000000000065e+03, 4.177948999999999614e+03, 1.000000000000000000e+00, 1.000000000000000000e+00, 1.000000000000000000e+02
8.400000000000000000e+01, 4.224103000000000065e+03, 4.170256000000000313e+03, 4.070255999999999858e+03, 4.184103000000000065e+03, 4.190769000000000233e+03, 1.000000000000000000e+00, 1.000000000000000000e+00, 1.000000000000000000e+02
8.500000000000000000e+01, 4.225640999999999622e+03, 4.176409999999999854e+03, 4.077436000000000149e+03, 4.186154000000000451e+03, 4.191795000000000073e+03, 1.000000000000000000e+00, 1.000000000000000000e+00, 1.000000000000000000e+02
8.600000000000000000e+01, 4.224103000000000065e+03, 4.170256000000000313e+03, 4.082050999999999931e+03, 4.182564000000000306e+03, 4.194359000000000378e+03, 1.000000000000000000e+00, 1.000000000000000000e+00, 1.000000000000000000e+02
8.700000000000000000e+01, 4.212307999999999993e+03, 4.162051000000000386e+03, 4.083077000000000226e+03, 4.194872000000000298e+03, 4.185127999999999702e+03, 1.000000000000000000e+00, 1.000000000000000000e+00, 1.000000000000000000e+02
8.800000000000000000e+01, 4.211795000000000073e+03, 4.168204999999999927e+03, 4.089744000000000142e+03, 4.203077000000000226e+03, 4.185640999999999622e+03, 1.000000000000000000e+00, 0.000000000000000000e+00, 1.000000000000000000e+02
8.900000000000000000e+01, 4.204103000000000065e+03, 4.176409999999999854e+03, 4.090255999999999858e+03, 4.192307999999999993e+03, 4.182564000000000306e+03, 1.000000000000000000e+00, 0.000000000000000000e+00, 1.000000000000000000e+02
9.000000000000000000e+01, 4.196409999999999854e+03, 4.166154000000000451e+03, 4.095385000000000218e+03, 4.196409999999999854e+03, 4.174359000000000378e+03, 1.000000000000000000e+00, 0.000000000000000000e+00, 1.000000000000000000e+02
9.100000000000000000e+01, 4.210256000000000313e+03, 4.168204999999999927e+03, 4.111795000000000073e+03, 4.204614999999999782e+03, 4.183077000000000226e+03, 1.000000000000000000e+00, 0.000000000000000000e+00, 1.000000000000000000e+02
9.200000000000000000e+01, 4.207179000000000087e+03, 4.186667000000000371e+03, 4.107692000000000007e+03, 4.187692000000000007e+03, 4.172820999999999913e+03, 1.000000000000000000e+00, 0.000000000000000000e+00, 1.000000000000000000e+02
