COUNTER, AF3, T7, Pz, T8, AF4, MARKERS['Center','Left','Right'], TICK, ContactQuality
1.110000000000000000e+02, 4.203590000000000146e+03, 4.190769000000000233e+03, 4.214359000000000378e+03, 4.202051000000000386e+03, 4.206154000000000451e+03, 0.000000000000000000e+00, 1.000000000000000000e+00, 1.000000000000000000e+02
1.120000000000000000e+02, 4.197948999999999614e+03, 4.176409999999999854e+03, 4.207692000000000007e+03, 4.198974000000000160e+03, 4.192820999999999913e+03, 0.000000000000000000e+00, 1.000000000000000000e+00, 1.000000000000000000e+02
1.130000000000000000e+02, 4.216922999999999774e+03, 4.207179000000000087e+03, 4.232307999999999993e+03, 4.211795000000000073e+03, 4.212307999999999993e+03, 0.000000000000000000e+00, 1.000000000000000000e+00, 1.000000000000000000e+02
1.140000000000000000e+02, 4.186667000000000371e+03, 4.176409999999999854e+03, 4.206667000000000371e+03, 4.208204999999999927e+03, 4.184614999999999782e+03, 0.000000000000000000e+00, 1.000000000000000000e+00, 1.000000000000000000e+02
1.150000000000000000e+02, 4.201537999999999556e+03, 4.176409999999999854e+03, 4.213332999999999629e+03, 4.205640999999999622e+03, 4.201025999999999840e+03, 0.000000000000000000e+00, 1.000000000000000000e+00, 1.000000000000000000e+02
1.160000000000000000e+02, 4.200000000000000000e+03, 4.170256000000000313e+03, 4.200512999999999920e+03, 4.205127999999999702e+03, 4.201025999999999840e+03, 0.000000000000000000e+00, 1.000000000000000000e+00, 1.000000000000000000e+02
1.170000000000000000e+02, 4.188204999999999927e+03, 4.170256000000000313e+03, 4.188717999999999847e+03, 4.205127999999999702e+03, 4.187179000000000087e+03, 0.000000000000000000e+00, 1.000000000000000000e+00, 1.000000000000000000e+02
1.180000000000000000e+02, 4.208204999999999927e+03, 4.194872000000000298e+03, 4.217435999999999694e+03, 4.217435999999999694e+03, 4.215385000000000218e+03, 0.000000000000000000e+00, 1.000000000000000000e+00, 1.000000000000000000e+02
1.190000000000000000e+02, 4.175385000000000218e+03, 4.151795000000000073e+03, 4.196922999999999774e+03, 4.215385000000000218e+03, 4.185127999999999702e+03, 0.000000000000000000e+00, 1.000000000000000000e+00, 1.000000000000000000e+02
1.200000000000000000e+02, 4.190256000000000313e+03, 4.168204999999999927e+03, 4.222564000000000306e+03, 4.221025999999999840e+03, 4.196409999999999854e+03, 0.000000000000000000e+00, 1.000000000000000000e+00, 1.000000000000000000e+02
1.210000000000000000e+02, 4.197948999999999614e+03, 4.172307999999999993e+03, 4.225640999999999622e+03, 4.220000000000000000e+03, 4.203590000000000146e+03, 0.000000000000000000e+00, 1.000000000000000000e+00, 1.000000000000000000e+02
1.220000000000000000e+02, 4.183590000000000146e+03, 4.145640999999999622e+03, 4.190769000000000233e+03, 4.204103000000000065e+03, 4.181025999999999840e+03, 0.000000000000000000e+00, 1.000000000000000000e+00, 1.000000000000000000e+02
1.230000000000000000e+02, 4.202051000000000386e+03, 4.168204999999999927e+03, 4.200512999999999920e+03, 4.204103000000000065e+03, 4.199487000000000080e+03, 0.000000000000000000e+00, 1.000000000000000000e+00, 1.000000000000000000e+02
1.240000000000000000e+02, 4.173845999999999549e+03, 4.137435999999999694e+03, 4.173845999999999549e+03, 4.191795000000000073e+03, 4.171282000000000153e+03, 0.000000000000000000e+00, 1.000000000000000000e+00, 1.000000000000000000e+02
1.250000000000000000e+02, 4.197948999999999614e+03, 4.145640999999999622e+03, 4.191795000000000073e+03, 4.195896999999999935e+03, 4.193845999999999549e+03, 0.000000000000000000e+00, 1.000000000000000000e+00, 1.000000000000000000e+02
1.260000000000000000e+02, 4.217435999999999694e+03, 4.155896999999999935e+03, 4.204614999999999782e+03, 4.213845999999999549e+03, 4.221537999999999556e+03, 0.000000000000000000e+00, 1.000000000000000000e+00, 1.000000000000000000e+02
1.270000000000000000e+02, 4.198462000000000444e+03, 4.137435999999999694e+03, 4.181025999999999840e+03, 4.210769000000000233e+03, 4.202051000000000386e+03, 0.000000000000000000e+00, 1.000000000000000000e+00, 1.000000000000000000e+02
0.000000000000000000e+00, 4.224103000000000065e+03, 4.172307999999999993e+03, 4.205640999999999622e+03, 4.218974000000000160e+03, 4.224614999999999782e+03, 0.000000000000000000e+00, 1.000000000000000000e+00, 1.000000000000000000e+02
1.000000000000000000e+00, 4.203590000000000146e+03, 4.153845999999999549e+03, 4.193845999999999549e+03, 4.217435999999999694e+03, 4.203590000000000146e+03, 0.000000000000000000e+00, 1.000000000000000000e+00, 1.000000000000000000e+02
2.000000000000000000e+00, 4.212307999999999993e+03, 4.170256000000000313e+03, 4.217435999999999694e+03, 4.219487000000000080e+03, 4.214872000000000298e+03, 0.000000000000000000e+00, 1.000000000000000000e+00, 1.000000000000000000e+02
3.000000000000000000e+00, 4.220512999999999920e+03, 4.194872000000000298e+03, 4.240000000000000000e+03, 4.231795000000000073e+03, 4.225127999999999702e+03, 0.000000000000000000e+00, 1.000000000000000000e+00, 1.000000000000000000e+02
4.000000000000000000e+00, 4.185127999999999702e+03, 4.166154000000000451e+03, 4.213845999999999549e+03, 4.226667000000000371e+03, 4.186154000000000451e+03, 0.000000000000000000e+00, 1.000000000000000000e+00, 1.000000000000000000e+02
5.000000000000000000e+00, 4.206667000000000371e+03, 4.178462000000000444e+03, 4.223590000000000146e+03, 4.233332999999999629e+03, 4.207179000000000087e+03, 0.000000000000000000e+00, 1.000000000000000000e+00, 1.000000000000000000e+02
6.000000000000000000e+00, 4.197948999999999614e+03, 4.160000000000000000e+03, 4.190256000000000313e+03, 4.226154000000000451e+03, 4.192820999999999913e+03, 0.000000000000000000e+00, 1.000000000000000000e+00, 1.000000000000000000e+02
7.000000000000000000e+00, 4.210769000000000233e+03, 4.174359000000000378e+03, 4.189743999999999687e+03, 4.216922999999999774e+03, 4.200000000000000000e+03, 0.000000000000000000e+00, 1.000000000000000000e+00, 1.000000000000000000e+02
8.000000000000000000e+00, 4.225127999999999702e+03, 4.182564000000000306e+03, 4.203077000000000226e+03, 4.219487000000000080e+03, 4.217435999999999694e+03, 0.000000000000000000e+00, 1.000000000000000000e+00, 1.000000000000000000e+02
9.000000000000000000e+00, 4.195896999999999935e+03, 4.145640999999999622e+03, 4.171282000000000153e+03, 4.209230999999999767e+03, 4.184103000000000065e+03, 0.000000000000000000e+00, 1.000000000000000000e+00, 1.000000000000000000e+02
1.000000000000000000e+01, 4.228204999999999927e+03, 4.180512999999999920e+03, 4.196922999999999774e+03, 4.215896999999999935e+03, 4.216409999999999854e+03, 0.000000000000000000e+00, 1.000000000000000000e+00, 1.000000000000000000e+02
1.100000000000000000e+01, 4.229230999999999767e+03, 4.176409999999999854e+03, 4.191795000000000073e+03, 4.218462000000000444e+03, 4.220512999999999920e+03, 0.000000000000000000e+00, 1.000000000000000000e+00, 1.000000000000000000e+02
1.200000000000000000e+01, 4.233845999999999549e+03, 4.176409999999999854e+03, 4.198462000000000444e+03, 4.217435999999999694e+03, 4.222564000000000306e+03, 0.000000000000000000e+00, 1.000000000000000000e+00, 1.000000000000000000e+02
1.300000000000000000e+01, 4.247692000000000007e+03, 4.201025999999999840e+03, 4.222564000000000306e+03, 4.224103000000000065e+03, 4.244103000000000065e+03, 0.000000000000000000e+00, 1.000000000000000000e+00, 1.000000000000000000e+02
1.400000000000000000e+01, 4.225127999999999702e+03, 4.176409999999999854e+03, 4.206154000000000451e+03, 4.222051000000000386e+03, 4.222051000000000386e+03, 0.000000000000000000e+00, 1.000000000000000000e+00, 1.000000000000000000e+02
1.500000000000000000e+01, 4.251282000000000153e+03, 4.198974000000000160e+03, 4.237435999999999694e+03, 4.233332999999999629e+03, 4.241537999999999556e+03, 0.000000000000000000e+00, 1.000000000000000000e+00, 1.000000000000000000e+02
1.600000000000000000e+01, 4.233845999999999549e+03, 4.188717999999999847e+03, 4.224103000000000065e+03, 4.231795000000000073e+03, 4.222564000000000306e+03, 0.000000000000000000e+00, 1.000000000000000000e+00, 1.000000000000000000e+02
1.700000000000000000e+01, 4.233332999999999629e+03, 4.194872000000000298e+03, 4.215385000000000218e+03, 4.229743999999999687e+03, 4.220000000000000000e+03, 0.000000000000000000e+00, 1.000000000000000000e+00, 1.000000000000000000e+02
1.800000000000000000e+01, 4.262051000000000386e+03, 4.223590000000000146e+03, 4.236922999999999774e+03, 4.240512999999999920e+03, 4.247692000000000007e+03, 0.000000000000000000e+00, 1.000000000000000000e+00, 1.000000000000000000e+02
1.900000000000000000e+01, 4.234359000000000378e+03, 4.192820999999999913e+03, 4.209743999999999687e+03, 4.231795000000000073e+03, 4.217435999999999694e+03, 0.000000000000000000e+00, 1.000000000000000000e+00, 1.000000000000000000e+02
2.000000000000000000e+01, 4.258974000000000160e+03, 4.213332999999999629e+03, 4.225127999999999702e+03, 4.231795000000000073e+03, 4.242564000000000306e+03, 0.000000000000000000e+00, 1.000000000000000000e+00, 1.000000000000000000e+02
2.100000000000000000e+01, 4.257948999999999614e+03, 4.205127999999999702e+03, 4.209743999999999687e+03, 4.226667000000000371e+03, 4.246154000000000451e+03, 0.000000000000000000e+00, 1.000000000000000000e+00, 1.000000000000000000e+02
2.200000000000000000e+01, 4.246154000000000451e+03, 4.190769000000000233e+03, 4.196409999999999854e+03, 4.217435999999999694e+03, 4.233845999999999549e+03, 0.000000000000000000e+00, 1.000000000000000000e+00, 1.000000000000000000e+02
2.300000000000000000e+01, 4.257435999999999694e+03, 4.203077000000000226e+03, 4.213845999999999549e+03, 4.218462000000000444e+03, 4.248204999999999927e+03, 0.000000000000000000e+00, 1.000000000000000000e+00, 1.000000000000000000e+02
2.400000000000000000e+01, 4.223590000000000146e+03, 4.174359000000000378e+03, 4.181537999999999556e+03, 4.204103000000000065e+03, 4.215896999999999935e+03, 0.000000000000000000e+00, 1.000000000000000000e+00, 1.000000000000000000e+02
2.500000000000000000e+01, 4.237948999999999614e+03, 4.207179000000000087e+03, 4.205640999999999622e+03, 4.210256000000000313e+03, 4.236409999999999854e+03, 0.000000000000000000e+00, 1.000000000000000000e+00, 1.000000000000000000e+02
2.600000000000000000e+01, 4.221537999999999556e+03, 4.209230999999999767e+03, 4.207692000000000007e+03, 4.212820999999999913e+03, 4.226154000000000451e+03, 0.000000000000000000e+00, 1.000000000000000000e+00, 1.000000000000000000e+02
2.700000000000000000e+01, 4.203590000000000146e+03, 4.192820999999999913e+03, 4.198974000000000160e+03, 4.202051000000000386e+03, 4.201025999999999840e+03, 0.000000000000000000e+00, 1.000000000000000000e+00, 1.000000000000000000e+02
2.800000000000000000e+01, 4.234359000000000378e+03, 4.219487000000000080e+03, 4.230769000000000233e+03, 4.218974000000000160e+03, 4.233332999999999629e+03, 0.000000000000000000e+00, 1.000000000000000000e+00, 1.000000000000000000e+02
2.900000000000000000e+01, 4.200512999999999920e+03, 4.188717999999999847e+03, 4.197948999999999614e+03, 4.219487000000000080e+03, 4.202564000000000306e+03, 0.000000000000000000e+00, 1.000000000000000000e+00, 1.000000000000000000e+02
3.000000000000000000e+01, 4.202051000000000386e+03, 4.194872000000000298e+03, 4.194359000000000378e+03, 4.210256000000000313e+03, 4.203590000000000146e+03, 0.000000000000000000e+00, 1.000000000000000000e+00, 1.000000000000000000e+02
3.100000000000000000e+01, 4.206667000000000371e+03, 4.196922999999999774e+03, 4.192307999999999993e+03, 4.209230999999999767e+03, 4.206154000000000451e+03, 0.000000000000000000e+00, 1.000000000000000000e+00, 1.000000000000000000e+02
3.200000000000000000e+01, 4.196922999999999774e+03, 4.186667000000000371e+03, 4.190256000000000313e+03, 4.209230999999999767e+03, 4.190256000000000313e+03, 0.000000000000000000e+00, 1.000000000000000000e+00, 1.000000000000000000e+02
3.300000000000000000e+01, 4.226154000000000451e+03, 4.215385000000000218e+03, 4.223590000000000146e+03, 4.216409999999999854e+03, 4.218974000000000160e+03, 0.000000000000000000e+00, 1.000000000000000000e+00, 1.000000000000000000e+02
3.400000000000000000e+01, 4.209230999999999767e+03, 4.182564000000000306e+03, 4.201537999999999556e+03, 4.208204999999999927e+03, 4.200512999999999920e+03, 0.000000000000000000e+00, 1.000000000000000000e+00, 1.000000000000000000e+02
3.500000000000000000e+01, 4.227179000000000087e+03, 4.188717999999999847e+03, 4.219487000000000080e+03, 4.209743999999999687e+03, 4.225127999999999702e+03, 0.000000000000000000e+00, 1.000000000000000000e+00, 1.000000000000000000e+02
3.600000000000000000e+01, 4.241537999999999556e+03, 4.196922999999999774e+03, 4.224103000000000065e+03, 4.211282000000000153e+03, 4.240512999999999920e+03, 0.000000000000000000e+00, 1.000000000000000000e+00, 1.000000000000000000e+02
3.700000000000000000e+01, 4.229230999999999767e+03, 4.172307999999999993e+03, 4.193332999999999629e+03, 4.193845999999999549e+03, 4.210769000000000233e+03, 0.000000000000000000e+00, 1.000000000000000000e+00, 1.000000000000000000e+02
3.800000000000000000e+01, 4.244103000000000065e+03, 4.188717999999999847e+03, 4.211282000000000153e+03, 4.193845999999999549e+03, 4.225640999999999622e+03, 0.000000000000000000e+00, 1.000000000000000000e+00, 1.000000000000000000e+02
3.900000000000000000e+01, 4.208204999999999927e+03, 4.168204999999999927e+03, 4.194872000000000298e+03, 4.196922999999999774e+03, 4.198974000000000160e+03, 0.000000000000000000e+00, 1.000000000000000000e+00, 1.000000000000000000e+02
4.000000000000000000e+01, 4.220000000000000000e+03, 4.192820999999999913e+03, 4.215896999999999935e+03, 4.206154000000000451e+03, 4.205127999999999702e+03, 0.000000000000000000e+00, 1.000000000000000000e+00, 1.000000000000000000e+02
4.100000000000000000e+01, 4.227692000000000007e+03, 4.207179000000000087e+03, 4.231795000000000073e+03, 4.206154000000000451e+03, 4.213332999999999629e+03, 0.000000000000000000e+00, 1.000000000000000000e+00, 1.000000000000000000e+02
4.200000000000000000e+01, 4.193845999999999549e+03, 4.180512999999999920e+03, 4.208717999999999847e+03, 4.192820999999999913e+03, 4.184103000000000065e+03, 0.000000000000000000e+00, 1.000000000000000000e+00, 1.000000000000000000e+02
4.300000000000000000e+01, 4.216922999999999774e+03, 4.209230999999999767e+03, 4.232307999999999993e+03, 4.204103000000000065e+03, 4.205127999999999702e+03, 0.000000000000000000e+00, 1.000000000000000000e+00, 1.000000000000000000e+02
4.400000000000000000e+01, 4.195896999999999935e+03, 4.186667000000000371e+03, 4.208717999999999847e+03, 4.206154000000000451e+03, 4.180000000000000000e+03, 0.000000000000000000e+00, 1.000000000000000000e+00, 1.000000000000000000e+02
4.500000000000000000e+01, 4.193332999999999629e+03, 4.192820999999999913e+03, 4.216922999999999774e+03, 4.206667000000000371e+03, 4.180000000000000000e+03, 0.000000000000000000e+00, 1.000000000000000000e+00, 1.000000000000000000e+02
4.600000000000000000e+01, 4.198974000000000160e+03, 4.209230999999999767e+03, 4.236409999999999854e+03, 4.214359000000000378e+03, 4.195385000000000218e+03, 0.000000000000000000e+00, 1.000000000000000000e+00, 1.000000000000000000e+02
4.700000000000000000e+01, 4.175385000000000218e+03, 4.174359000000000378e+03, 4.205640999999999622e+03, 4.204103000000000065e+03, 4.172820999999999913e+03, 0.000000000000000000e+00, 1.000000000000000000e+00, 1.000000000000000000e+02
4.800000000000000000e+01, 4.213845999999999549e+03, 4.198974000000000160e+03, 4.223077000000000226e+03, 4.208717999999999847e+03, 4.209743999999999687e+03, 0.000000000000000000e+00, 1.000000000000000000e+00, 1.000000000000000000e+02
4.900000000000000000e+01, 4.206667000000000371e+03, 4.184614999999999782e+03, 4.208204999999999927e+03, 4.203077000000000226e+03, 4.198462000000000444e+03, 0.000000000000000000e+00, 1.000000000000000000e+00, 1.000000000000000000e+02
5.000000000000000000e+01, 4.205127999999999702e+03, 4.182564000000000306e+03, 4.209743999999999687e+03, 4.192820999999999913e+03, 4.195896999999999935e+03, 0.000000000000000000e+00, 1.000000000000000000e+00, 1.000000000000000000e+02
5.100000000000000000e+01, 4.218462000000000444e+03, 4.203077000000000226e+03, 4.226667000000000371e+03, 4.201025999999999840e+03, 4.220512999999999920e+03, 0.000000000000000000e+00, 1.000000000000000000e+00, 1.000000000000000000e+02
5.200000000000000000e+01, 4.189743999999999687e+03, 4.180512999999999920e+03, 4.200512999999999920e+03, 4.198974000000000160e+03, 4.186154000000000451e+03, 0.000000000000000000e+00, 1.000000000000000000e+00, 1.000000000000000000e+02
5.300000000000000000e+01, 4.211282000000000153e+03, 4.207179000000000087e+03, 4.224614999999999782e+03, 4.201025999999999840e+03, 4.202564000000000306e+03, 0.000000000000000000e+00, 1.000000000000000000e+00, 1.000000000000000000e+02
5.400000000000000000e+01, 4.201025999999999840e+03, 4.194872000000000298e+03, 4.218462000000000444e+03, 4.197435999999999694e+03, 4.198974000000000160e+03, 0.000000000000000000e+00, 1.000000000000000000e+00, 1.000000000000000000e+02
5.500000000000000000e+01, 4.197948999999999614e+03, 4.192820999999999913e+03, 4.217435999999999694e+03, 4.195385000000000218e+03, 4.195385000000000218e+03, 0.000000000000000000e+00, 1.000000000000000000e+00, 1.000000000000000000e+02
5.600000000000000000e+01, 4.215896999999999935e+03, 4.223590000000000146e+03, 4.233845999999999549e+03, 4.212307999999999993e+03, 4.215896999999999935e+03, 0.000000000000000000e+00, 1.000000000000000000e+00, 1.000000000000000000e+02
5.700000000000000000e+01, 4.195385000000000218e+03, 4.201025999999999840e+03, 4.208204999999999927e+03, 4.217948999999999614e+03, 4.192820999999999913e+03, 0.000000000000000000e+00, 1.000000000000000000e+00, 1.000000000000000000e+02
5.800000000000000000e+01, 4.217948999999999614e+03, 4.217435999999999694e+03, 4.228717999999999847e+03, 4.216409999999999854e+03, 4.213845999999999549e+03, 0.000000000000000000e+00, 1.000000000000000000e+00, 1.000000000000000000e+02
5.900000000000000000e+01, 4.204614999999999782e+03, 4.203077000000000226e+03, 4.216922999999999774e+03, 4.205640999999999622e+03, 4.205127999999999702e+03, 0.000000000000000000e+00, 1.000000000000000000e+00, 1.000000000000000000e+02
6.000000000000000000e+01, 4.205640999999999622e+03, 4.194872000000000298e+03, 4.212820999999999913e+03, 4.212307999999999993e+03, 4.200000000000000000e+03, 0.000000000000000000e+00, 1.000000000000000000e+00, 1.000000000000000000e+02
6.100000000000000000e+01, 4.244103000000000065e+03, 4.213332999999999629e+03, 4.231795000000000073e+03, 4.228717999999999847e+03, 4.229743999999999687e+03, 0.000000000000000000e+00, 1.000000000000000000e+00, 1.000000000000000000e+02
6.200000000000000000e+01, 4.237435999999999694e+03, 4.178462000000000444e+03, 4.190256000000000313e+03, 4.211282000000000153e+03, 4.216922999999999774e+03, 0.000000000000000000e+00, 1.000000000000000000e+00, 1.000000000000000000e+02
6.300000000000000000e+01, 4.292307999999999993e+03, 4.201025999999999840e+03, 4.208717999999999847e+03, 4.221025999999999840e+03, 4.268204999999999927e+03, 0.000000000000000000e+00, 1.000000000000000000e+00, 1.000000000000000000e+02
6.400000000000000000e+01, 4.315896999999999935e+03, 4.196922999999999774e+03, 4.210769000000000233e+03, 4.232307999999999993e+03, 4.284103000000000065e+03, 0.000000000000000000e+00, 1.000000000000000000e+00, 1.000000000000000000e+02
6.500000000000000000e+01, 4.323590000000000146e+03, 4.188717999999999847e+03, 4.196409999999999854e+03, 4.210256000000000313e+03, 4.277435999999999694e+03, 0.000000000000000000e+00, 1.000000000000000000e+00, 1.000000000000000000e+02
6.600000000000000000e+01, 4.386154000000000451e+03, 4.225640999999999622e+03, 4.224103000000000065e+03, 4.209743999999999687e+03, 4.333845999999999549e+03, 0.000000000000000000e+00, 1.000000000000000000e+00, 1.000000000000000000e+02
6.700000000000000000e+01, 4.393845999999999549e+03, 4.201025999999999840e+03, 4.203590000000000146e+03, 4.210769000000000233e+03, 4.336409999999999854e+03, 0.000000000000000000e+00, 1.000000000000000000e+00, 1.000000000000000000e+02
6.800000000000000000e+01, 4.426667000000000371e+03, 4.217435999999999694e+03, 4.224614999999999782e+03, 4.212307999999999993e+03, 4.361537999999999556e+03, 0.000000000000000000e+00, 1.000000000000000000e+00, 1.000000000000000000e+02
6.900000000000000000e+01, 4.454359000000000378e+03, 4.223590000000000146e+03, 4.231795000000000073e+03, 4.211795000000000073e+03, 4.383077000000000226e+03, 0.000000000000000000e+00, 1.000000000000000000e+00, 1.000000000000000000e+02
7.000000000000000000e+01, 4.463590000000000146e+03, 4.201025999999999840e+03, 4.210256000000000313e+03, 4.204614999999999782e+03, 4.386667000000000371e+03, 0.000000000000000000e+00, 1.000000000000000000e+00, 1.000000000000000000e+02
7.100000000000000000e+01, 4.484614999999999782e+03, 4.213332999999999629e+03, 4.222564000000000306e+03, 4.211282000000000153e+03, 4.416922999999999774e+03, 0.000000000000000000e+00, 1.000000000000000000e+00, 1.000000000000000000e+02
7.200000000000000000e+01, 4.456922999999999774e+03, 4.192820999999999913e+03, 4.203077000000000226e+03, 4.211282000000000153e+03, 4.398462000000000444e+03, 0.000000000000000000e+00, 1.000000000000000000e+00, 1.000000000000000000e+02
7.300000000000000000e+01, 4.475385000000000218e+03, 4.215385000000000218e+03, 4.224103000000000065e+03, 4.216409999999999854e+03, 4.420000000000000000e+03, 0.000000000000000000e+00, 1.000000000000000000e+00, 1.000000000000000000e+02
7.400000000000000000e+01, 4.460512999999999920e+03, 4.209230999999999767e+03, 4.216922999999999774e+03, 4.215896999999999935e+03, 4.411282000000000153e+03, 0.000000000000000000e+00, 1.000000000000000000e+00, 1.000000000000000000e+02
7.500000000000000000e+01, 4.416409999999999854e+03, 4.186667000000000371e+03, 4.190256000000000313e+03, 4.210256000000000313e+03, 4.373332999999999629e+03, 0.000000000000000000e+00, 1.000000000000000000e+00, 1.000000000000000000e+02
7.600000000000000000e+01, 4.434359000000000378e+03, 4.227692000000000007e+03, 4.230256000000000313e+03, 4.224103000000000065e+03, 4.400512999999999920e+03, 0.000000000000000000e+00, 1.000000000000000000e+00, 1.000000000000000000e+02
7.700000000000000000e+01, 4.403077000000000226e+03, 4.207179000000000087e+03, 4.218974000000000160e+03, 4.221537999999999556e+03, 4.366154000000000451e+03, 0.000000000000000000e+00, 1.000000000000000000e+00, 1.000000000000000000e+02
7.800000000000000000e+01, 4.392820999999999913e+03, 4.219487000000000080e+03, 4.228204999999999927e+03, 4.221025999999999840e+03, 4.350256000000000313e+03, 0.000000000000000000e+00, 1.000000000000000000e+00, 1.000000000000000000e+02
7.900000000000000000e+01, 4.383590000000000146e+03, 4.237948999999999614e+03, 4.241025999999999840e+03, 4.224614999999999782e+03, 4.350769000000000233e+03, 0.000000000000000000e+00, 1.000000000000000000e+00, 1.000000000000000000e+02
8.000000000000000000e+01, 4.348717999999999847e+03, 4.219487000000000080e+03, 4.227692000000000007e+03, 4.215896999999999935e+03, 4.317435999999999694e+03, 0.000000000000000000e+00, 1.000000000000000000e+00, 1.000000000000000000e+02
8.100000000000000000e+01, 4.350769000000000233e+03, 4.246154000000000451e+03, 4.241537999999999556e+03, 4.213845999999999549e+03, 4.319487000000000080e+03, 0.000000000000000000e+00, 1.000000000000000000e+00, 1.000000000000000000e+02
8.200000000000000000e+01, 4.295385000000000218e+03, 4.215385000000000218e+03, 4.193332999999999629e+03, 4.192307999999999993e+03, 4.266154000000000451e+03, 0.000000000000000000e+00, 1.000000000000000000e+00, 1.000000000000000000e+02
8.300000000000000000e+01, 4.285640999999999622e+03, 4.221537999999999556e+03, 4.194872000000000298e+03, 4.192307999999999993e+03, 4.250256000000000313e+03, 0.000000000000000000e+00, 1.000000000000000000e+00, 1.000000000000000000e+02
8.400000000000000000e+01, 4.303590000000000146e+03, 4.242051000000000386e+03, 4.222051000000000386e+03, 4.211795000000000073e+03, 4.266667000000000371e+03, 0.000000000000000000e+00, 1.000000000000000000e+00, 1.000000000000000000e+02
8.500000000000000000e+01, 4.269743999999999687e+03, 4.213332999999999629e+03, 4.196922999999999774e+03, 4.191282000000000153e+03, 4.236922999999999774e+03, 0.000000000000000000e+00, 1.000000000000000000e+00, 1.000000000000000000e+02
8.600000000000000000e+01, 4.275385000000000218e+03, 4.233845999999999549e+03, 4.215385000000000218e+03, 4.183077000000000226e+03, 4.248717999999999847e+03, 0.000000000000000000e+00, 1.000000000000000000e+00, 1.000000000000000000e+02
8.700000000000000000e+01, 4.253845999999999549e+03, 4.219487000000000080e+03, 4.196922999999999774e+03, 4.195385000000000218e+03, 4.220000000000000000e+03, 0.000000000000000000e+00, 1.000000000000000000e+00, 1.000000000000000000e+02
8.800000000000000000e+01, 4.249230999999999767e+03, 4.223590000000000146e+03, 4.200000000000000000e+03, 4.204103000000000065e+03, 4.209743999999999687e+03, 0.000000000000000000e+00, 1.000000000000000000e+00, 1.000000000000000000e+02
8.900000000000000000e+01, 4.240512999999999920e+03, 4.231795000000000073e+03, 4.213332999999999629e+03, 4.201537999999999556e+03, 4.214359000000000378e+03, 0.000000000000000000e+00, 1.000000000000000000e+00, 1.000000000000000000e+02
9.000000000000000000e+01, 4.196409999999999854e+03, 4.186667000000000371e+03, 4.190256000000000313e+03, 4.191282000000000153e+03, 4.175896999999999935e+03, 0.000000000000000000e+00, 1.000000000000000000e+00, 1.000000000000000000e+02
9.100000000000000000e+01, 4.223590000000000146e+03, 4.207179000000000087e+03, 4.226154000000000451e+03, 4.208204999999999927e+03, 4.208204999999999927e+03, 0.000000000000000000e+00, 1.000000000000000000e+00, 1.000000000000000000e+02
9.200000000000000000e+01, 4.207179000000000087e+03, 4.203077000000000226e+03, 4.215896999999999935e+03, 4.201537999999999556e+03, 4.195896999999999935e+03, 0.000000000000000000e+00, 1.000000000000000000e+00, 1.000000000000000000e+02
9.300000000000000000e+01, 4.191282000000000153e+03, 4.196922999999999774e+03, 4.203077000000000226e+03, 4.176409999999999854e+03, 4.172820999999999913e+03, 0.000000000000000000e+00, 1.000000000000000000e+00, 1.000000000000000000e+02
9.400000000000000000e+01, 4.199487000000000080e+03, 4.209230999999999767e+03, 4.210769000000000233e+03, 4.182564000000000306e+03, 4.185640999999999622e+03, 0.000000000000000000e+00, 1.000000000000000000e+00, 1.000000000000000000e+02
9.500000000000000000e+01, 4.166667000000000371e+03, 4.188717999999999847e+03, 4.177948999999999614e+03, 4.191795000000000073e+03, 4.158974000000000160e+03, 0.000000000000000000e+00, 1.000000000000000000e+00, 1.000000000000000000e+02
9.600000000000000000e+01, 4.184614999999999782e+03, 4.217435999999999694e+03, 4.201025999999999840e+03, 4.197948999999999614e+03, 4.178974000000000160e+03, 0.000000000000000000e+00, 1.000000000000000000e+00, 1.000000000000000000e+02
9.700000000000000000e+01, 4.176922999999999774e+03, 4.207179000000000087e+03, 4.201025999999999840e+03, 4.185640999999999622e+03, 4.173332999999999629e+03, 0.000000000000000000e+00, 1.000000000000000000e+00, 1.000000000000000000e+02
9.800000000000000000e+01, 4.182051000000000386e+03, 4.205127999999999702e+03, 4.208717999999999847e+03, 4.185640999999999622e+03, 4.175385000000000218e+03, 0.000000000000000000e+00, 1.000000000000000000e+00, 1.000000000000000000e+02
9.900000000000000000e+01, 4.208717999999999847e+03, 4.235896999999999935e+03, 4.227692000000000007e+03, 4.204614999999999782e+03, 4.199487000000000080e+03, 0.000000000000000000e+00, 1.000000000000000000e+00, 1.000000000000000000e+02
1.000000000000000000e+02, 4.171795000000000073e+03, 4.201025999999999840e+03, 4.184614999999999782e+03, 4.185127999999999702e+03, 4.161025999999999840e+03, 0.000000000000000000e+00, 1.000000000000000000e+00, 1.000000000000000000e+02
1.010000000000000000e+02, 4.183077000000000226e+03, 4.209230999999999767e+03, 4.201537999999999556e+03, 4.175896999999999935e+03, 4.177948999999999614e+03, 0.000000000000000000e+00, 1.000000000000000000e+00, 1.000000000000000000e+02
1.020000000000000000e+02, 4.179487000000000080e+03, 4.194872000000000298e+03, 4.197435999999999694e+03, 4.186154000000000451e+03, 4.175385000000000218e+03, 0.000000000000000000e+00, 1.000000000000000000e+00, 1.000000000000000000e+02
1.030000000000000000e+02, 4.178462000000000444e+03, 4.182564000000000306e+03, 4.181537999999999556e+03, 4.189230999999999767e+03, 4.165640999999999622e+03, 0.000000000000000000e+00, 1.000000000000000000e+00, 1.000000000000000000e+02
1.040000000000000000e+02, 4.217435999999999694e+03, 4.217435999999999694e+03, 4.211795000000000073e+03, 4.191795000000000073e+03, 4.205640999999999622e+03, 0.000000000000000000e+00, 1.000000000000000000e+00, 1.000000000000000000e+02
1.050000000000000000e+02, 4.200512999999999920e+03, 4.190769000000000233e+03, 4.192820999999999913e+03, 4.184103000000000065e+03, 4.190256000000000313e+03, 0.000000000000000000e+00, 1.000000000000000000e+00, 1.000000000000000000e+02
1.060000000000000000e+02, 4.227179000000000087e+03, 4.196922999999999774e+03, 4.200512999999999920e+03, 4.191795000000000073e+03, 4.217435999999999694e+03, 0.000000000000000000e+00, 1.000000000000000000e+00, 1.000000000000000000e+02
1.070000000000000000e+02, 4.258974000000000160e+03, 4.192820999999999913e+03, 4.192820999999999913e+03, 4.198462000000000444e+03, 4.248204999999999927e+03, 0.000000000000000000e+00, 1.000000000000000000e+00, 1.000000000000000000e+02
1.080000000000000000e+02, 4.289743999999999687e+03, 4.184614999999999782e+03, 4.187692000000000007e+03, 4.194872000000000298e+03, 4.269743999999999687e+03, 0.000000000000000000e+00, 1.000000000000000000e+00, 1.000000000000000000e+02
1.090000000000000000e+02, 4.351795000000000073e+03, 4.221537999999999556e+03, 4.220512999999999920e+03, 4.201537999999999556e+03, 4.329743999999999687e+03, 0.000000000000000000e+00, 1.000000000000000000e+00, 1.000000000000000000e+02
1.100000000000000000e+02, 4.365640999999999622e+03, 4.205127999999999702e+03, 4.191282000000000153e+03, 4.190769000000000233e+03, 4.337948999999999614e+03, 0.000000000000000000e+00, 1.000000000000000000e+00, 1.000000000000000000e+02
1.110000000000000000e+02, 4.413845999999999549e+03, 4.227692000000000007e+03, 4.199487000000000080e+03, 4.189230999999999767e+03, 4.384103000000000065e+03, 0.000000000000000000e+00, 1.000000000000000000e+00, 1.000000000000000000e+02
1.120000000000000000e+02, 4.424614999999999782e+03, 4.225640999999999622e+03, 4.200000000000000000e+03, 4.194872000000000298e+03, 4.404614999999999782e+03, 0.000000000000000000e+00, 1.000000000000000000e+00, 1.000000000000000000e+02
1.130000000000000000e+02, 4.406154000000000451e+03, 4.198974000000000160e+03, 4.182051000000000386e+03, 4.193845999999999549e+03, 4.386154000000000451e+03, 0.000000000000000000e+00, 1.000000000000000000e+00, 1.000000000000000000e+02
1.140000000000000000e+02, 4.435385000000000218e+03, 4.231795000000000073e+03, 4.207692000000000007e+03, 4.198974000000000160e+03, 4.421537999999999556e+03, 0.000000000000000000e+00, 1.000000000000000000e+00, 1.000000000000000000e+02
1.150000000000000000e+02, 4.404103000000000065e+03, 4.201025999999999840e+03, 4.181537999999999556e+03, 4.187692000000000007e+03, 4.402051000000000386e+03, 0.000000000000000000e+00, 1.000000000000000000e+00, 1.000000000000000000e+02
1.160000000000000000e+02, 4.405640999999999622e+03, 4.198974000000000160e+03, 4.194872000000000298e+03, 4.202051000000000386e+03, 4.408204999999999927e+03, 0.000000000000000000e+00, 1.000000000000000000e+00, 1.000000000000000000e+02
1.170000000000000000e+02, 4.404103000000000065e+03, 4.211282000000000153e+03, 4.204103000000000065e+03, 4.221025999999999840e+03, 4.409743999999999687e+03, 0.000000000000000000e+00, 1.000000000000000000e+00, 1.000000000000000000e+02
1.180000000000000000e+02, 4.368204999999999927e+03, 4.188717999999999847e+03, 4.180512999999999920e+03, 4.200000000000000000e+03, 4.367692000000000007e+03, 0.000000000000000000e+00, 1.000000000000000000e+00, 1.000000000000000000e+02
1.190000000000000000e+02, 4.378462000000000444e+03, 4.209230999999999767e+03, 4.207692000000000007e+03, 4.205127999999999702e+03, 4.378974000000000160e+03, 0.000000000000000000e+00, 1.000000000000000000e+00, 1.000000000000000000e+02
1.200000000000000000e+02, 4.335385000000000218e+03, 4.180512999999999920e+03, 4.182564000000000306e+03, 4.215385000000000218e+03, 4.340000000000000000e+03, 0.000000000000000000e+00, 1.000000000000000000e+00, 1.000000000000000000e+02
1.210000000000000000e+02, 4.315385000000000218e+03, 4.182564000000000306e+03, 4.176922999999999774e+03, 4.207692000000000007e+03, 4.318462000000000444e+03, 0.000000000000000000e+00, 1.000000000000000000e+00, 1.000000000000000000e+02
1.220000000000000000e+02, 4.311795000000000073e+03, 4.190769000000000233e+03, 4.186154000000000451e+03, 4.197435999999999694e+03, 4.315896999999999935e+03, 0.000000000000000000e+00, 1.000000000000000000e+00, 1.000000000000000000e+02
1.230000000000000000e+02, 4.281537999999999556e+03, 4.172307999999999993e+03, 4.171795000000000073e+03, 4.194872000000000298e+03, 4.285640999999999622e+03, 0.000000000000000000e+00, 1.000000000000000000e+00, 1.000000000000000000e+02
1.240000000000000000e+02, 4.291282000000000153e+03, 4.211282000000000153e+03, 4.197435999999999694e+03, 4.207179000000000087e+03, 4.301025999999999840e+03, 0.000000000000000000e+00, 1.000000000000000000e+00, 1.000000000000000000e+02
1.250000000000000000e+02, 4.249743999999999687e+03, 4.186667000000000371e+03, 4.171795000000000073e+03, 4.196409999999999854e+03, 4.263077000000000226e+03, 0.000000000000000000e+00, 1.000000000000000000e+00, 1.000000000000000000e+02
1.260000000000000000e+02, 4.232307999999999993e+03, 4.182564000000000306e+03, 4.175896999999999935e+03, 4.193332999999999629e+03, 4.243590000000000146e+03, 0.000000000000000000e+00, 1.000000000000000000e+00, 1.000000000000000000e+02
1.270000000000000000e+02, 4.232307999999999993e+03, 4.203077000000000226e+03, 4.197435999999999694e+03, 4.205640999999999622e+03, 4.244614999999999782e+03, 0.000000000000000000e+00, 1.000000000000000000e+00, 1.000000000000000000e+02
0.000000000000000000e+00, 4.189230999999999767e+03, 4.174359000000000378e+03, 4.165127999999999702e+03, 4.194359000000000378e+03, 4.199487000000000080e+03, 0.000000000000000000e+00, 1.000000000000000000e+00, 1.000000000000000000e+02
1.000000000000000000e+00, 4.198462000000000444e+03, 4.194872000000000298e+03, 4.175385000000000218e+03, 4.193332999999999629e+03, 4.210256000000000313e+03, 0.000000000000000000e+00, 1.000000000000000000e+00, 1.000000000000000000e+02
2.000000000000000000e+00, 4.177948999999999614e+03, 4.176409999999999854e+03, 4.163590000000000146e+03, 4.197948999999999614e+03, 4.189743999999999687e+03, 0.000000000000000000e+00, 1.000000000000000000e+00, 1.000000000000000000e+02
3.000000000000000000e+00, 4.170769000000000233e+03, 4.176409999999999854e+03, 4.177435999999999694e+03, 4.202564000000000306e+03, 4.182051000000000386e+03, 0.000000000000000000e+00, 1.000000000000000000e+00, 1.000000000000000000e+02
4.000000000000000000e+00, 4.178974000000000160e+03, 4.201025999999999840e+03, 4.205640999999999622e+03, 4.213332999999999629e+03, 4.194872000000000298e+03, 0.000000000000000000e+00, 1.000000000000000000e+00, 1.000000000000000000e+02
5.000000000000000000e+00, 4.144614999999999782e+03, 4.178462000000000444e+03, 4.180512999999999920e+03, 4.206154000000000451e+03, 4.155385000000000218e+03, 0.000000000000000000e+00, 1.000000000000000000e+00, 1.000000000000000000e+02
6.000000000000000000e+00, 4.166667000000000371e+03, 4.205127999999999702e+03, 4.197435999999999694e+03, 4.202564000000000306e+03, 4.172307999999999993e+03, 0.000000000000000000e+00, 1.000000000000000000e+00, 1.000000000000000000e+02
7.000000000000000000e+00, 4.156922999999999774e+03, 4.194872000000000298e+03, 4.177435999999999694e+03, 4.194359000000000378e+03, 4.164614999999999782e+03, 0.000000000000000000e+00, 1.000000000000000000e+00, 1.000000000000000000e+02
8.000000000000000000e+00, 4.153332999999999629e+03, 4.184614999999999782e+03, 4.174359000000000378e+03, 4.190256000000000313e+03, 4.165127999999999702e+03, 0.000000000000000000e+00, 1.000000000000000000e+00, 1.000000000000000000e+02
9.000000000000000000e+00, 4.174359000000000378e+03, 4.211282000000000153e+03, 4.211795000000000073e+03, 4.193845999999999549e+03, 4.195385000000000218e+03, 0.000000000000000000e+00, 1.000000000000000000e+00, 1.000000000000000000e+02
1.000000000000000000e+01, 4.135896999999999935e+03, 4.188717999999999847e+03, 4.194872000000000298e+03, 4.181537999999999556e+03, 4.156409999999999854e+03, 0.000000000000000000e+00, 1.000000000000000000e+00, 1.000000000000000000e+02
1.100000000000000000e+01, 4.140000000000000000e+03, 4.211282000000000153e+03, 4.213845999999999549e+03, 4.187179000000000087e+03, 4.159487000000000080e+03, 0.000000000000000000e+00, 1.000000000000000000e+00, 1.000000000000000000e+02
1.200000000000000000e+01, 4.120512999999999920e+03, 4.194872000000000298e+03, 4.199487000000000080e+03, 4.187179000000000087e+03, 4.144614999999999782e+03, 0.000000000000000000e+00, 1.000000000000000000e+00, 1.000000000000000000e+02
1.300000000000000000e+01, 4.109743999999999687e+03, 4.172307999999999993e+03, 4.181025999999999840e+03, 4.180000000000000000e+03, 4.130256000000000313e+03, 0.000000000000000000e+00, 1.000000000000000000e+00, 1.000000000000000000e+02
1.400000000000000000e+01, 4.135896999999999935e+03, 4.188717999999999847e+03, 4.200000000000000000e+03, 4.189743999999999687e+03, 4.155385000000000218e+03, 0.000000000000000000e+00, 1.000000000000000000e+00, 1.000000000000000000e+02
1.500000000000000000e+01, 4.107179000000000087e+03, 4.153845999999999549e+03, 4.175385000000000218e+03, 4.185640999999999622e+03, 4.125640999999999622e+03, 0.000000000000000000e+00, 1.000000000000000000e+00, 1.000000000000000000e+02
1.600000000000000000e+01, 4.128204999999999927e+03, 4.174359000000000378e+03, 4.200000000000000000e+03, 4.194359000000000378e+03, 4.147692000000000007e+03, 0.000000000000000000e+00, 1.000000000000000000e+00, 1.000000000000000000e+02
1.700000000000000000e+01, 4.127692000000000007e+03, 4.174359000000000378e+03, 4.189743999999999687e+03, 4.202051000000000386e+03, 4.152307999999999993e+03, 0.000000000000000000e+00, 1.000000000000000000e+00, 1.000000000000000000e+02
1.800000000000000000e+01, 4.111282000000000153e+03, 4.153845999999999549e+03, 4.164614999999999782e+03, 4.191282000000000153e+03, 4.132307999999999993e+03, 0.000000000000000000e+00, 1.000000000000000000e+00, 1.000000000000000000e+02
1.900000000000000000e+01, 4.137948999999999614e+03, 4.172307999999999993e+03, 4.192820999999999913e+03, 4.198974000000000160e+03, 4.158974000000000160e+03, 0.000000000000000000e+00, 1.000000000000000000e+00, 1.000000000000000000e+02
2.000000000000000000e+01, 4.112307999999999993e+03, 4.141537999999999556e+03, 4.166667000000000371e+03, 4.196922999999999774e+03, 4.132820999999999913e+03, 0.000000000000000000e+00, 1.000000000000000000e+00, 1.000000000000000000e+02
2.100000000000000000e+01, 4.121025999999999840e+03, 4.160000000000000000e+03, 4.172820999999999913e+03, 4.188204999999999927e+03, 4.138462000000000444e+03, 0.000000000000000000e+00, 1.000000000000000000e+00, 1.000000000000000000e+02
2.200000000000000000e+01, 4.123077000000000226e+03, 4.168204999999999927e+03, 4.180000000000000000e+03, 4.178974000000000160e+03, 4.140000000000000000e+03, 0.000000000000000000e+00, 1.000000000000000000e+00, 1.000000000000000000e+02
2.300000000000000000e+01, 4.111795000000000073e+03, 4.162051000000000386e+03, 4.178462000000000444e+03, 4.173845999999999549e+03, 4.125127999999999702e+03, 0.000000000000000000e+00, 1.000000000000000000e+00, 1.000000000000000000e+02
2.400000000000000000e+01, 4.130256000000000313e+03, 4.201025999999999840e+03, 4.201537999999999556e+03, 4.179487000000000080e+03, 4.146667000000000371e+03, 0.000000000000000000e+00, 1.000000000000000000e+00, 1.000000000000000000e+02
2.500000000000000000e+01, 4.091282000000000153e+03, 4.172307999999999993e+03, 4.162051000000000386e+03, 4.166154000000000451e+03, 4.109743999999999687e+03, 0.000000000000000000e+00, 1.000000000000000000e+00, 1.000000000000000000e+02
2.600000000000000000e+01, 4.107692000000000007e+03, 4.184614999999999782e+03, 4.173332999999999629e+03, 4.174359000000000378e+03, 4.124103000000000065e+03, 0.000000000000000000e+00, 1.000000000000000000e+00, 1.000000000000000000e+02
2.700000000000000000e+01, 4.123590000000000146e+03, 4.190769000000000233e+03, 4.186154000000000451e+03, 4.190256000000000313e+03, 4.142051000000000386e+03, 0.000000000000000000e+00, 1.000000000000000000e+00, 1.000000000000000000e+02
2.800000000000000000e+01, 4.098974000000000160e+03, 4.170256000000000313e+03, 4.162564000000000306e+03, 4.173845999999999549e+03, 4.114359000000000378e+03, 0.000000000000000000e+00, 1.000000000000000000e+00, 1.000000000000000000e+02
2.900000000000000000e+01, 4.120000000000000000e+03, 4.211282000000000153e+03, 4.185640999999999622e+03, 4.174872000000000298e+03, 4.138462000000000444e+03, 0.000000000000000000e+00, 1.000000000000000000e+00, 1.000000000000000000e+02
3.000000000000000000e+01, 4.094871999999999844e+03, 4.188717999999999847e+03, 4.162051000000000386e+03, 4.177435999999999694e+03, 4.113845999999999549e+03, 0.000000000000000000e+00, 1.000000000000000000e+00, 1.000000000000000000e+02
3.100000000000000000e+01, 4.106667000000000371e+03, 4.184614999999999782e+03, 4.162564000000000306e+03, 4.180512999999999920e+03, 4.116922999999999774e+03, 0.000000000000000000e+00, 1.000000000000000000e+00, 1.000000000000000000e+02
3.200000000000000000e+01, 4.131795000000000073e+03, 4.198974000000000160e+03, 4.166154000000000451e+03, 4.186667000000000371e+03, 4.137948999999999614e+03, 0.000000000000000000e+00, 1.000000000000000000e+00, 1.000000000000000000e+02
3.300000000000000000e+01, 4.112820999999999913e+03, 4.180512999999999920e+03, 4.143590000000000146e+03, 4.175896999999999935e+03, 4.120512999999999920e+03, 0.000000000000000000e+00, 1.000000000000000000e+00, 1.000000000000000000e+02
3.400000000000000000e+01, 4.126154000000000451e+03, 4.203077000000000226e+03, 4.175385000000000218e+03, 4.173332999999999629e+03, 4.142051000000000386e+03, 0.000000000000000000e+00, 1.000000000000000000e+00, 1.000000000000000000e+02
3.500000000000000000e+01, 4.095896999999999935e+03, 4.180512999999999920e+03, 4.155385000000000218e+03, 4.164614999999999782e+03, 4.114359000000000378e+03, 0.000000000000000000e+00, 1.000000000000000000e+00, 1.000000000000000000e+02
3.600000000000000000e+01, 4.103077000000000226e+03, 4.194872000000000298e+03, 4.155896999999999935e+03, 4.166154000000000451e+03, 4.110769000000000233e+03, 0.000000000000000000e+00, 1.000000000000000000e+00, 1.000000000000000000e+02
3.700000000000000000e+01, 4.120512999999999920e+03, 4.217435999999999694e+03, 4.170256000000000313e+03, 4.173845999999999549e+03, 4.126667000000000371e+03, 0.000000000000000000e+00, 1.000000000000000000e+00, 1.000000000000000000e+02
3.800000000000000000e+01, 4.101025999999999840e+03, 4.186667000000000371e+03, 4.146154000000000451e+03, 4.167692000000000007e+03, 4.110256000000000313e+03, 0.000000000000000000e+00, 1.000000000000000000e+00, 1.000000000000000000e+02
3.900000000000000000e+01, 4.131795000000000073e+03, 4.205127999999999702e+03, 4.172307999999999993e+03, 4.184103000000000065e+03, 4.149743999999999687e+03, 0.000000000000000000e+00, 1.000000000000000000e+00, 1.000000000000000000e+02
4.000000000000000000e+01, 4.109230999999999767e+03, 4.176409999999999854e+03, 4.161025999999999840e+03, 4.194359000000000378e+03, 4.132307999999999993e+03, 0.000000000000000000e+00, 1.000000000000000000e+00, 1.000000000000000000e+02
4.100000000000000000e+01, 4.105640999999999622e+03, 4.176409999999999854e+03, 4.174872000000000298e+03, 4.195896999999999935e+03, 4.128204999999999927e+03, 0.000000000000000000e+00, 1.000000000000000000e+00, 1.000000000000000000e+02
4.200000000000000000e+01, 4.127692000000000007e+03, 4.205127999999999702e+03, 4.202051000000000386e+03, 4.200512999999999920e+03, 4.155896999999999935e+03, 0.000000000000000000e+00, 1.000000000000000000e+00, 1.000000000000000000e+02
4.300000000000000000e+01, 4.098462000000000444e+03, 4.174359000000000378e+03, 4.161025999999999840e+03, 4.185640999999999622e+03, 4.124614999999999782e+03, 0.000000000000000000e+00, 1.000000000000000000e+00, 1.000000000000000000e+02
4.400000000000000000e+01, 4.118974000000000160e+03, 4.198974000000000160e+03, 4.169743999999999687e+03, 4.184614999999999782e+03, 4.138462000000000444e+03, 0.000000000000000000e+00, 1.000000000000000000e+00, 1.000000000000000000e+02
4.500000000000000000e+01, 4.122564000000000306e+03, 4.201025999999999840e+03, 4.165127999999999702e+03, 4.190256000000000313e+03, 4.134872000000000298e+03, 0.000000000000000000e+00, 1.000000000000000000e+00, 1.000000000000000000e+02
4.600000000000000000e+01, 4.126667000000000371e+03, 4.198974000000000160e+03, 4.162564000000000306e+03, 4.192307999999999993e+03, 4.141025999999999840e+03, 0.000000000000000000e+00, 1.000000000000000000e+00, 1.000000000000000000e+02
4.700000000000000000e+01, 4.126667000000000371e+03, 4.198974000000000160e+03, 4.170256000000000313e+03, 4.192820999999999913e+03, 4.156409999999999854e+03, 0.000000000000000000e+00, 1.000000000000000000e+00, 1.000000000000000000e+02
4.800000000000000000e+01, 4.094871999999999844e+03, 4.164103000000000065e+03, 4.153332999999999629e+03, 4.184103000000000065e+03, 4.118974000000000160e+03, 0.000000000000000000e+00, 1.000000000000000000e+00, 1.000000000000000000e+02
4.900000000000000000e+01, 4.137948999999999614e+03, 4.207179000000000087e+03, 4.196922999999999774e+03, 4.196409999999999854e+03, 4.151282000000000153e+03, 0.000000000000000000e+00, 1.000000000000000000e+00, 1.000000000000000000e+02
5.000000000000000000e+01, 4.134359000000000378e+03, 4.207179000000000087e+03, 4.181025999999999840e+03, 4.187692000000000007e+03, 4.152307999999999993e+03, 0.000000000000000000e+00, 1.000000000000000000e+00, 1.000000000000000000e+02
5.100000000000000000e+01, 4.115896999999999935e+03, 4.192820999999999913e+03, 4.164103000000000065e+03, 4.174359000000000378e+03, 4.134872000000000298e+03, 0.000000000000000000e+00, 1.000000000000000000e+00, 1.000000000000000000e+02
5.200000000000000000e+01, 4.137435999999999694e+03, 4.213332999999999629e+03, 4.197948999999999614e+03, 4.196409999999999854e+03, 4.158974000000000160e+03, 0.000000000000000000e+00, 1.000000000000000000e+00, 1.000000000000000000e+02
5.300000000000000000e+01, 4.104103000000000065e+03, 4.174359000000000378e+03, 4.173332999999999629e+03, 4.190256000000000313e+03, 4.128717999999999847e+03, 0.000000000000000000e+00, 1.000000000000000000e+00, 1.000000000000000000e+02
5.400000000000000000e+01, 4.114359000000000378e+03, 4.184614999999999782e+03, 4.188717999999999847e+03, 4.187179000000000087e+03, 4.138974000000000160e+03, 0.000000000000000000e+00, 1.000000000000000000e+00, 1.000000000000000000e+02
5.500000000000000000e+01, 4.116922999999999774e+03, 4.176409999999999854e+03, 4.187179000000000087e+03, 4.204103000000000065e+03, 4.143077000000000226e+03, 0.000000000000000000e+00, 1.000000000000000000e+00, 1.000000000000000000e+02
5.600000000000000000e+01, 4.114359000000000378e+03, 4.168204999999999927e+03, 4.171795000000000073e+03, 4.204614999999999782e+03, 4.139487000000000080e+03, 0.000000000000000000e+00, 1.000000000000000000e+00, 1.000000000000000000e+02
5.700000000000000000e+01, 4.145127999999999702e+03, 4.198974000000000160e+03, 4.185640999999999622e+03, 4.204103000000000065e+03, 4.172307999999999993e+03, 0.000000000000000000e+00, 1.000000000000000000e+00, 1.000000000000000000e+02
5.800000000000000000e+01, 4.122564000000000306e+03, 4.168204999999999927e+03, 4.146667000000000371e+03, 4.199487000000000080e+03, 4.146667000000000371e+03, 0.000000000000000000e+00, 1.000000000000000000e+00, 1.000000000000000000e+02
5.900000000000000000e+01, 4.139487000000000080e+03, 4.188717999999999847e+03, 4.158462000000000444e+03, 4.201537999999999556e+03, 4.163077000000000226e+03, 0.000000000000000000e+00, 1.000000000000000000e+00, 1.000000000000000000e+02
6.000000000000000000e+01, 4.138462000000000444e+03, 4.190769000000000233e+03, 4.166667000000000371e+03, 4.195385000000000218e+03, 4.158462000000000444e+03, 0.000000000000000000e+00, 1.000000000000000000e+00, 1.000000000000000000e+02
6.100000000000000000e+01, 4.118974000000000160e+03, 4.168204999999999927e+03, 4.161537999999999556e+03, 4.187692000000000007e+03, 4.131282000000000153e+03, 0.000000000000000000e+00, 1.000000000000000000e+00, 1.000000000000000000e+02
6.200000000000000000e+01, 4.147179000000000087e+03, 4.186667000000000371e+03, 4.196922999999999774e+03, 4.194872000000000298e+03, 4.163590000000000146e+03, 0.000000000000000000e+00, 1.000000000000000000e+00, 1.000000000000000000e+02
6.300000000000000000e+01, 4.122051000000000386e+03, 4.157948999999999614e+03, 4.177435999999999694e+03, 4.180512999999999920e+03, 4.138974000000000160e+03, 0.000000000000000000e+00, 1.000000000000000000e+00, 1.000000000000000000e+02
6.400000000000000000e+01, 4.136922999999999774e+03, 4.174359000000000378e+03, 4.192820999999999913e+03, 4.182564000000000306e+03, 4.149230999999999767e+03, 0.000000000000000000e+00, 1.000000000000000000e+00, 1.000000000000000000e+02
6.500000000000000000e+01, 4.142564000000000306e+03, 4.182564000000000306e+03, 4.197435999999999694e+03, 4.198974000000000160e+03, 4.155896999999999935e+03, 0.000000000000000000e+00, 1.000000000000000000e+00, 1.000000000000000000e+02
6.600000000000000000e+01, 4.117435999999999694e+03, 4.162051000000000386e+03, 4.167179000000000087e+03, 4.195385000000000218e+03, 4.127179000000000087e+03, 0.000000000000000000e+00, 1.000000000000000000e+00, 1.000000000000000000e+02
6.700000000000000000e+01, 4.142051000000000386e+03, 4.190769000000000233e+03, 4.174872000000000298e+03, 4.198462000000000444e+03, 4.150256000000000313e+03, 0.000000000000000000e+00, 1.000000000000000000e+00, 1.000000000000000000e+02
6.800000000000000000e+01, 4.120000000000000000e+03, 4.170256000000000313e+03, 4.140512999999999920e+03, 4.192820999999999913e+03, 4.130769000000000233e+03, 0.000000000000000000e+00, 1.000000000000000000e+00, 1.000000000000000000e+02
6.900000000000000000e+01, 4.130769000000000233e+03, 4.172307999999999993e+03, 4.147692000000000007e+03, 4.190769000000000233e+03, 4.144103000000000065e+03, 0.000000000000000000e+00, 1.000000000000000000e+00, 1.000000000000000000e+02
7.000000000000000000e+01, 4.138462000000000444e+03, 4.172307999999999993e+03, 4.150256000000000313e+03, 4.192307999999999993e+03, 4.152820999999999913e+03, 0.000000000000000000e+00, 1.000000000000000000e+00, 1.000000000000000000e+02
7.100000000000000000e+01, 4.113332999999999629e+03, 4.149743999999999687e+03, 4.132307999999999993e+03, 4.192307999999999993e+03, 4.124614999999999782e+03, 0.000000000000000000e+00, 1.000000000000000000e+00, 1.000000000000000000e+02
7.200000000000000000e+01, 4.134872000000000298e+03, 4.186667000000000371e+03, 4.177435999999999694e+03, 4.206154000000000451e+03, 4.147179000000000087e+03, 0.000000000000000000e+00, 1.000000000000000000e+00, 1.000000000000000000e+02
7.300000000000000000e+01, 4.103077000000000226e+03, 4.157948999999999614e+03, 4.162564000000000306e+03, 4.189230999999999767e+03, 4.109230999999999767e+03, 0.000000000000000000e+00, 1.000000000000000000e+00, 1.000000000000000000e+02
7.400000000000000000e+01, 4.101025999999999840e+03, 4.153845999999999549e+03, 4.164614999999999782e+03, 4.176409999999999854e+03, 4.094871999999999844e+03, 0.000000000000000000e+00, 1.000000000000000000e+00, 1.000000000000000000e+02
7.500000000000000000e+01, 4.113845999999999549e+03, 4.160000000000000000e+03, 4.173845999999999549e+03, 4.187692000000000007e+03, 4.110256000000000313e+03, 0.000000000000000000e+00, 1.000000000000000000e+00, 1.000000000000000000e+02
7.600000000000000000e+01, 4.099487000000000080e+03, 4.129230999999999767e+03, 4.144103000000000065e+03, 4.182051000000000386e+03, 4.095896999999999935e+03, 0.000000000000000000e+00, 1.000000000000000000e+00, 1.000000000000000000e+02
7.700000000000000000e+01, 4.148204999999999927e+03, 4.166154000000000451e+03, 4.177948999999999614e+03, 4.190256000000000313e+03, 4.145640999999999622e+03, 0.000000000000000000e+00, 1.000000000000000000e+00, 1.000000000000000000e+02
7.800000000000000000e+01, 4.148204999999999927e+03, 4.155896999999999935e+03, 4.175896999999999935e+03, 4.194872000000000298e+03, 4.149743999999999687e+03, 0.000000000000000000e+00, 1.000000000000000000e+00, 1.000000000000000000e+02
7.900000000000000000e+01, 4.147179000000000087e+03, 4.155896999999999935e+03, 4.176409999999999854e+03, 4.197435999999999694e+03, 4.147179000000000087e+03, 0.000000000000000000e+00, 1.000000000000000000e+00, 1.000000000000000000e+02
8.000000000000000000e+01, 4.151795000000000073e+03, 4.176409999999999854e+03, 4.180000000000000000e+03, 4.202564000000000306e+03, 4.153845999999999549e+03, 0.000000000000000000e+00, 1.000000000000000000e+00, 1.000000000000000000e+02
8.100000000000000000e+01, 4.123590000000000146e+03, 4.145640999999999622e+03, 4.146154000000000451e+03, 4.184103000000000065e+03, 4.123077000000000226e+03, 0.000000000000000000e+00, 1.000000000000000000e+00, 1.000000000000000000e+02
8.200000000000000000e+01, 4.156922999999999774e+03, 4.162051000000000386e+03, 4.171282000000000153e+03, 4.184614999999999782e+03, 4.157435999999999694e+03, 0.000000000000000000e+00, 1.000000000000000000e+00, 1.000000000000000000e+02
8.300000000000000000e+01, 4.147692000000000007e+03, 4.149743999999999687e+03, 4.158462000000000444e+03, 4.198462000000000444e+03, 4.148204999999999927e+03, 0.000000000000000000e+00, 1.000000000000000000e+00, 1.000000000000000000e+02
8.400000000000000000e+01, 4.137948999999999614e+03, 4.147692000000000007e+03, 4.158974000000000160e+03, 4.201537999999999556e+03, 4.136409999999999854e+03, 0.000000000000000000e+00, 1.000000000000000000e+00, 1.000000000000000000e+02
8.500000000000000000e+01, 4.145127999999999702e+03, 4.155896999999999935e+03, 4.184103000000000065e+03, 4.201537999999999556e+03, 4.154872000000000298e+03, 0.000000000000000000e+00, 1.000000000000000000e+00, 1.000000000000000000e+02
8.600000000000000000e+01, 4.111282000000000153e+03, 4.108717999999999847e+03, 4.155896999999999935e+03, 4.192820999999999913e+03, 4.122564000000000306e+03, 0.000000000000000000e+00, 1.000000000000000000e+00, 1.000000000000000000e+02
8.700000000000000000e+01, 4.138462000000000444e+03, 4.127179000000000087e+03, 4.172820999999999913e+03, 4.191795000000000073e+03, 4.137435999999999694e+03, 0.000000000000000000e+00, 1.000000000000000000e+00, 1.000000000000000000e+02
8.800000000000000000e+01, 4.134872000000000298e+03, 4.118974000000000160e+03, 4.160512999999999920e+03, 4.188717999999999847e+03, 4.131795000000000073e+03, 0.000000000000000000e+00, 1.000000000000000000e+00, 1.000000000000000000e+02
8.900000000000000000e+01, 4.134872000000000298e+03, 4.110769000000000233e+03, 4.153332999999999629e+03, 4.200000000000000000e+03, 4.136409999999999854e+03, 0.000000000000000000e+00, 1.000000000000000000e+00, 1.000000000000000000e+02
9.000000000000000000e+01, 4.161025999999999840e+03, 4.129230999999999767e+03, 4.178974000000000160e+03, 4.216409999999999854e+03, 4.167179000000000087e+03, 0.000000000000000000e+00, 1.000000000000000000e+00, 1.000000000000000000e+02
9.100000000000000000e+01, 4.127179000000000087e+03, 4.092307999999999993e+03, 4.150256000000000313e+03, 4.195896999999999935e+03, 4.128717999999999847e+03, 0.000000000000000000e+00, 1.000000000000000000e+00, 1.000000000000000000e+02
9.200000000000000000e+01, 4.143590000000000146e+03, 4.110769000000000233e+03, 4.160512999999999920e+03, 4.189743999999999687e+03, 4.144103000000000065e+03, 0.000000000000000000e+00, 1.000000000000000000e+00, 1.000000000000000000e+02
9.300000000000000000e+01, 4.140512999999999920e+03, 4.102564000000000306e+03, 4.147692000000000007e+03, 4.187692000000000007e+03, 4.146667000000000371e+03, 0.000000000000000000e+00, 1.000000000000000000e+00, 1.000000000000000000e+02
9.400000000000000000e+01, 4.122051000000000386e+03, 4.094358999999999924e+03, 4.129230999999999767e+03, 4.178974000000000160e+03, 4.127179000000000087e+03, 0.000000000000000000e+00, 1.000000000000000000e+00, 1.000000000000000000e+02
9.500000000000000000e+01, 4.138462000000000444e+03, 4.123077000000000226e+03, 4.147692000000000007e+03, 4.187179000000000087e+03, 4.145640999999999622e+03, 0.000000000000000000e+00, 1.000000000000000000e+00, 1.000000000000000000e+02
9.600000000000000000e+01, 4.112820999999999913e+03, 4.098462000000000444e+03, 4.126667000000000371e+03, 4.178974000000000160e+03, 4.118974000000000160e+03, 0.000000000000000000e+00, 1.000000000000000000e+00, 1.000000000000000000e+02
9.700000000000000000e+01, 4.131795000000000073e+03, 4.125127999999999702e+03, 4.149743999999999687e+03, 4.180512999999999920e+03, 4.133332999999999629e+03, 0.000000000000000000e+00, 1.000000000000000000e+00, 1.000000000000000000e+02
9.800000000000000000e+01, 4.131795000000000073e+03, 4.131282000000000153e+03, 4.147692000000000007e+03, 4.182564000000000306e+03, 4.135896999999999935e+03, 0.000000000000000000e+00, 1.000000000000000000e+00, 1.000000000000000000e+02
9.900000000000000000e+01, 4.128717999999999847e+03, 4.118974000000000160e+03, 4.143590000000000146e+03, 4.180512999999999920e+03, 4.134359000000000378e+03, 0.000000000000000000e+00, 1.000000000000000000e+00, 1.000000000000000000e+02
1.000000000000000000e+02, 4.166154000000000451e+03, 4.157948999999999614e+03, 4.186667000000000371e+03, 4.192820999999999913e+03, 4.181537999999999556e+03, 0.000000000000000000e+00, 1.000000000000000000e+00, 1.000000000000000000e+02
1.010000000000000000e+02, 4.143077000000000226e+03, 4.133332999999999629e+03, 4.166154000000000451e+03, 4.186154000000000451e+03, 4.162051000000000386e+03, 0.000000000000000000e+00, 1.000000000000000000e+00, 1.000000000000000000e+02
1.020000000000000000e+02, 4.161537999999999556e+03, 4.143590000000000146e+03, 4.180512999999999920e+03, 4.186154000000000451e+03, 4.180000000000000000e+03, 0.000000000000000000e+00, 1.000000000000000000e+00, 1.000000000000000000e+02
1.030000000000000000e+02, 4.166667000000000371e+03, 4.157948999999999614e+03, 4.180000000000000000e+03, 4.189230999999999767e+03, 4.189230999999999767e+03, 0.000000000000000000e+00, 1.000000000000000000e+00, 1.000000000000000000e+02
1.040000000000000000e+02, 4.144103000000000065e+03, 4.147692000000000007e+03, 4.153845999999999549e+03, 4.184614999999999782e+03, 4.162564000000000306e+03, 0.000000000000000000e+00, 1.000000000000000000e+00, 1.000000000000000000e+02
1.050000000000000000e+02, 4.166667000000000371e+03, 4.168204999999999927e+03, 4.177948999999999614e+03, 4.195896999999999935e+03, 4.187179000000000087e+03, 0.000000000000000000e+00, 1.000000000000000000e+00, 1.000000000000000000e+02
1.060000000000000000e+02, 4.134872000000000298e+03, 4.139487000000000080e+03, 4.144103000000000065e+03, 4.181025999999999840e+03, 4.153845999999999549e+03, 0.000000000000000000e+00, 1.000000000000000000e+00, 1.000000000000000000e+02
1.070000000000000000e+02, 4.141025999999999840e+03, 4.155896999999999935e+03, 4.147179000000000087e+03, 4.166154000000000451e+03, 4.146154000000000451e+03, 0.000000000000000000e+00, 1.000000000000000000e+00, 1.000000000000000000e+02
1.080000000000000000e+02, 4.153845999999999549e+03, 4.166154000000000451e+03, 4.169230999999999767e+03, 4.175896999999999935e+03, 4.154872000000000298e+03, 0.000000000000000000e+00, 1.000000000000000000e+00, 1.000000000000000000e+02
1.090000000000000000e+02, 4.137948999999999614e+03, 4.143590000000000146e+03, 4.174359000000000378e+03, 4.180512999999999920e+03, 4.147179000000000087e+03, 0.000000000000000000e+00, 1.000000000000000000e+00, 1.000000000000000000e+02
1.100000000000000000e+02, 4.162564000000000306e+03, 4.176409999999999854e+03, 4.210769000000000233e+03, 4.190256000000000313e+03, 4.181025999999999840e+03, 2.000000000000000000e+00, 0.000000000000000000e+00, 1.000000000000000000e+02
1.110000000000000000e+02, 4.135385000000000218e+03, 4.145640999999999622e+03, 4.177948999999999614e+03, 4.184614999999999782e+03, 4.147179000000000087e+03, 2.000000000000000000e+00, 0.000000000000000000e+00, 1.000000000000000000e+02
1.120000000000000000e+02, 4.132820999999999913e+03, 4.141537999999999556e+03, 4.175385000000000218e+03, 4.181537999999999556e+03, 4.144614999999999782e+03, 2.000000000000000000e+00, 0.000000000000000000e+00, 1.000000000000000000e+02
1.130000000000000000e+02, 4.143590000000000146e+03, 4.155896999999999935e+03, 4.184614999999999782e+03, 4.183077000000000226e+03, 4.168204999999999927e+03, 2.000000000000000000e+00, 0.000000000000000000e+00, 1.000000000000000000e+02
1.140000000000000000e+02, 4.140512999999999920e+03, 4.139487000000000080e+03, 4.157435999999999694e+03, 4.172820999999999913e+03, 4.152820999999999913e+03, 2.000000000000000000e+00, 0.000000000000000000e+00, 1.000000000000000000e+02
1.150000000000000000e+02, 4.189743999999999687e+03, 4.178462000000000444e+03, 4.184103000000000065e+03, 4.187692000000000007e+03, 4.187179000000000087e+03, 2.000000000000000000e+00, 0.000000000000000000e+00, 1.000000000000000000e+02
1.160000000000000000e+02, 4.171282000000000153e+03, 4.160000000000000000e+03, 4.164614999999999782e+03, 4.193332999999999629e+03, 4.176409999999999854e+03, 2.000000000000000000e+00, 0.000000000000000000e+00, 1.000000000000000000e+02
1.170000000000000000e+02, 4.162564000000000306e+03, 4.164103000000000065e+03, 4.155896999999999935e+03, 4.180512999999999920e+03, 4.178462000000000444e+03, 2.000000000000000000e+00, 0.000000000000000000e+00, 1.000000000000000000e+02
1.180000000000000000e+02, 4.167179000000000087e+03, 4.184614999999999782e+03, 4.161025999999999840e+03, 4.166667000000000371e+03, 4.184614999999999782e+03, 2.000000000000000000e+00, 0.000000000000000000e+00, 1.000000000000000000e+02
1.190000000000000000e+02, 4.136922999999999774e+03, 4.147692000000000007e+03, 4.140512999999999920e+03, 4.159487000000000080e+03, 4.145640999999999622e+03, 2.000000000000000000e+00, 0.000000000000000000e+00, 1.000000000000000000e+02
1.200000000000000000e+02, 4.171282000000000153e+03, 4.174359000000000378e+03, 4.181025999999999840e+03, 4.187692000000000007e+03, 4.183077000000000226e+03, 2.000000000000000000e+00, 0.000000000000000000e+00, 1.000000000000000000e+02
1.210000000000000000e+02, 4.162564000000000306e+03, 4.180512999999999920e+03, 4.181537999999999556e+03, 4.197435999999999694e+03, 4.183590000000000146e+03, 2.000000000000000000e+00, 0.000000000000000000e+00, 1.000000000000000000e+02
1.220000000000000000e+02, 4.152307999999999993e+03, 4.182564000000000306e+03, 4.192307999999999993e+03, 4.192820999999999913e+03, 4.171795000000000073e+03, 2.000000000000000000e+00, 0.000000000000000000e+00, 1.000000000000000000e+02
1.230000000000000000e+02, 4.163590000000000146e+03, 4.184614999999999782e+03, 4.218974000000000160e+03, 4.206154000000000451e+03, 4.185640999999999622e+03, 2.000000000000000000e+00, 0.000000000000000000e+00, 1.000000000000000000e+02
1.240000000000000000e+02, 4.140000000000000000e+03, 4.155896999999999935e+03, 4.190256000000000313e+03, 4.191795000000000073e+03, 4.158462000000000444e+03, 2.000000000000000000e+00, 0.000000000000000000e+00, 1.000000000000000000e+02
1.250000000000000000e+02, 4.170256000000000313e+03, 4.194872000000000298e+03, 4.205127999999999702e+03, 4.184103000000000065e+03, 4.187179000000000087e+03, 2.000000000000000000e+00, 0.000000000000000000e+00, 1.000000000000000000e+02
1.260000000000000000e+02, 4.159487000000000080e+03, 4.182564000000000306e+03, 4.179487000000000080e+03, 4.188717999999999847e+03, 4.177435999999999694e+03, 2.000000000000000000e+00, 0.000000000000000000e+00, 1.000000000000000000e+02
1.270000000000000000e+02, 4.152307999999999993e+03, 4.164103000000000065e+03, 4.153845999999999549e+03, 4.181025999999999840e+03, 4.164614999999999782e+03, 2.000000000000000000e+00, 0.000000000000000000e+00, 1.000000000000000000e+02
0.000000000000000000e+00, 4.174359000000000378e+03, 4.186667000000000371e+03, 4.161537999999999556e+03, 4.179487000000000080e+03, 4.189743999999999687e+03, 2.000000000000000000e+00, 0.000000000000000000e+00, 1.000000000000000000e+02
1.000000000000000000e+00, 4.141025999999999840e+03, 4.162051000000000386e+03, 4.133332999999999629e+03, 4.171282000000000153e+03, 4.162051000000000386e+03, 2.000000000000000000e+00, 0.000000000000000000e+00, 1.000000000000000000e+02
2.000000000000000000e+00, 4.150769000000000233e+03, 4.186667000000000371e+03, 4.150256000000000313e+03, 4.171795000000000073e+03, 4.172307999999999993e+03, 2.000000000000000000e+00, 0.000000000000000000e+00, 1.000000000000000000e+02
3.000000000000000000e+00, 4.139487000000000080e+03, 4.184614999999999782e+03, 4.136922999999999774e+03, 4.170256000000000313e+03, 4.157948999999999614e+03, 2.000000000000000000e+00, 0.000000000000000000e+00, 1.000000000000000000e+02
4.000000000000000000e+00, 4.135385000000000218e+03, 4.170256000000000313e+03, 4.145127999999999702e+03, 4.172820999999999913e+03, 4.154359000000000378e+03, 2.000000000000000000e+00, 0.000000000000000000e+00, 1.000000000000000000e+02
5.000000000000000000e+00, 4.166154000000000451e+03, 4.192820999999999913e+03, 4.195385000000000218e+03, 4.185127999999999702e+03, 4.193332999999999629e+03, 2.000000000000000000e+00, 0.000000000000000000e+00, 1.000000000000000000e+02
6.000000000000000000e+00, 4.143077000000000226e+03, 4.176409999999999854e+03, 4.173845999999999549e+03, 4.179487000000000080e+03, 4.166154000000000451e+03, 2.000000000000000000e+00, 0.000000000000000000e+00, 1.000000000000000000e+02
7.000000000000000000e+00, 4.163590000000000146e+03, 4.211282000000000153e+03, 4.194872000000000298e+03, 4.189230999999999767e+03, 4.183590000000000146e+03, 2.000000000000000000e+00, 0.000000000000000000e+00, 1.000000000000000000e+02
8.000000000000000000e+00, 4.155896999999999935e+03, 4.198974000000000160e+03, 4.203590000000000146e+03, 4.186154000000000451e+03, 4.181537999999999556e+03, 2.000000000000000000e+00, 0.000000000000000000e+00, 1.000000000000000000e+02
9.000000000000000000e+00, 4.129743999999999687e+03, 4.166154000000000451e+03, 4.187692000000000007e+03, 4.167692000000000007e+03, 4.160512999999999920e+03, 2.000000000000000000e+00, 0.000000000000000000e+00, 1.000000000000000000e+02
1.000000000000000000e+01, 4.155385000000000218e+03, 4.192820999999999913e+03, 4.195896999999999935e+03, 4.178974000000000160e+03, 4.191282000000000153e+03, 2.000000000000000000e+00, 0.000000000000000000e+00, 1.000000000000000000e+02
1.100000000000000000e+01, 4.141537999999999556e+03, 4.164103000000000065e+03, 4.154872000000000298e+03, 4.178974000000000160e+03, 4.171795000000000073e+03, 2.000000000000000000e+00, 0.000000000000000000e+00, 1.000000000000000000e+02
1.200000000000000000e+01, 4.160000000000000000e+03, 4.164103000000000065e+03, 4.159487000000000080e+03, 4.176922999999999774e+03, 4.188204999999999927e+03, 2.000000000000000000e+00, 0.000000000000000000e+00, 1.000000000000000000e+02
1.300000000000000000e+01, 4.150769000000000233e+03, 4.157948999999999614e+03, 4.147179000000000087e+03, 4.165640999999999622e+03, 4.186154000000000451e+03, 2.000000000000000000e+00, 0.000000000000000000e+00, 1.000000000000000000e+02
1.400000000000000000e+01, 4.124103000000000065e+03, 4.155896999999999935e+03, 4.119487000000000080e+03, 4.143077000000000226e+03, 4.153332999999999629e+03, 2.000000000000000000e+00, 0.000000000000000000e+00, 1.000000000000000000e+02
1.500000000000000000e+01, 4.145640999999999622e+03, 4.198974000000000160e+03, 4.155385000000000218e+03, 4.156409999999999854e+03, 4.178974000000000160e+03, 2.000000000000000000e+00, 0.000000000000000000e+00, 1.000000000000000000e+02
1.600000000000000000e+01, 4.114872000000000298e+03, 4.168204999999999927e+03, 4.157435999999999694e+03, 4.169230999999999767e+03, 4.156409999999999854e+03, 2.000000000000000000e+00, 0.000000000000000000e+00, 1.000000000000000000e+02
1.700000000000000000e+01, 4.128717999999999847e+03, 4.188717999999999847e+03, 4.189743999999999687e+03, 4.173332999999999629e+03, 4.165127999999999702e+03, 2.000000000000000000e+00, 0.000000000000000000e+00, 1.000000000000000000e+02
1.800000000000000000e+01, 4.138462000000000444e+03, 4.203077000000000226e+03, 4.198974000000000160e+03, 4.170769000000000233e+03, 4.180000000000000000e+03, 2.000000000000000000e+00, 0.000000000000000000e+00, 1.000000000000000000e+02
1.900000000000000000e+01, 4.123590000000000146e+03, 4.176409999999999854e+03, 4.183077000000000226e+03, 4.165127999999999702e+03, 4.173332999999999629e+03, 2.000000000000000000e+00, 0.000000000000000000e+00, 1.000000000000000000e+02
2.000000000000000000e+01, 4.163590000000000146e+03, 4.205127999999999702e+03, 4.225127999999999702e+03, 4.184103000000000065e+03, 4.212820999999999913e+03, 2.000000000000000000e+00, 0.000000000000000000e+00, 1.000000000000000000e+02
2.100000000000000000e+01, 4.143590000000000146e+03, 4.182564000000000306e+03, 4.206667000000000371e+03, 4.190256000000000313e+03, 4.188204999999999927e+03, 2.000000000000000000e+00, 0.000000000000000000e+00, 1.000000000000000000e+02
2.200000000000000000e+01, 4.137435999999999694e+03, 4.184614999999999782e+03, 4.203077000000000226e+03, 4.183590000000000146e+03, 4.189230999999999767e+03, 2.000000000000000000e+00, 0.000000000000000000e+00, 1.000000000000000000e+02
2.300000000000000000e+01, 4.132820999999999913e+03, 4.188717999999999847e+03, 4.193332999999999629e+03, 4.169230999999999767e+03, 4.194872000000000298e+03, 2.000000000000000000e+00, 0.000000000000000000e+00, 1.000000000000000000e+02
2.400000000000000000e+01, 4.122051000000000386e+03, 4.155896999999999935e+03, 4.153845999999999549e+03, 4.168717999999999847e+03, 4.168204999999999927e+03, 2.000000000000000000e+00, 0.000000000000000000e+00, 1.000000000000000000e+02
2.500000000000000000e+01, 4.173332999999999629e+03, 4.184614999999999782e+03, 4.175385000000000218e+03, 4.189230999999999767e+03, 4.210769000000000233e+03, 2.000000000000000000e+00, 0.000000000000000000e+00, 1.000000000000000000e+02
2.600000000000000000e+01, 4.153332999999999629e+03, 4.160000000000000000e+03, 4.148717999999999847e+03, 4.174359000000000378e+03, 4.202564000000000306e+03, 2.000000000000000000e+00, 0.000000000000000000e+00, 1.000000000000000000e+02
2.700000000000000000e+01, 4.146154000000000451e+03, 4.157948999999999614e+03, 4.148717999999999847e+03, 4.172307999999999993e+03, 4.195896999999999935e+03, 2.000000000000000000e+00, 0.000000000000000000e+00, 1.000000000000000000e+02
2.800000000000000000e+01, 4.162051000000000386e+03, 4.180512999999999920e+03, 4.183590000000000146e+03, 4.189743999999999687e+03, 4.204614999999999782e+03, 2.000000000000000000e+00, 0.000000000000000000e+00, 1.000000000000000000e+02
2.900000000000000000e+01, 4.141537999999999556e+03, 4.168204999999999927e+03, 4.185127999999999702e+03, 4.182564000000000306e+03, 4.179487000000000080e+03, 2.000000000000000000e+00, 0.000000000000000000e+00, 1.000000000000000000e+02
3.000000000000000000e+01, 4.162564000000000306e+03, 4.196922999999999774e+03, 4.215385000000000218e+03, 4.193332999999999629e+03, 4.205127999999999702e+03, 2.000000000000000000e+00, 0.000000000000000000e+00, 1.000000000000000000e+02
3.100000000000000000e+01, 4.140512999999999920e+03, 4.176409999999999854e+03, 4.203077000000000226e+03, 4.191282000000000153e+03, 4.182564000000000306e+03, 2.000000000000000000e+00, 0.000000000000000000e+00, 1.000000000000000000e+02
3.200000000000000000e+01, 4.134872000000000298e+03, 4.178462000000000444e+03, 4.214872000000000298e+03, 4.173845999999999549e+03, 4.171795000000000073e+03, 2.000000000000000000e+00, 0.000000000000000000e+00, 1.000000000000000000e+02
3.300000000000000000e+01, 4.150256000000000313e+03, 4.198974000000000160e+03, 4.232820999999999913e+03, 4.193845999999999549e+03, 4.196409999999999854e+03, 2.000000000000000000e+00, 0.000000000000000000e+00, 1.000000000000000000e+02
3.400000000000000000e+01, 4.128204999999999927e+03, 4.172307999999999993e+03, 4.194359000000000378e+03, 4.204614999999999782e+03, 4.178974000000000160e+03, 2.000000000000000000e+00, 0.000000000000000000e+00, 1.000000000000000000e+02
3.500000000000000000e+01, 4.154872000000000298e+03, 4.192820999999999913e+03, 4.204614999999999782e+03, 4.191795000000000073e+03, 4.208717999999999847e+03, 2.000000000000000000e+00, 0.000000000000000000e+00, 1.000000000000000000e+02
3.600000000000000000e+01, 4.139487000000000080e+03, 4.168204999999999927e+03, 4.181025999999999840e+03, 4.184103000000000065e+03, 4.196922999999999774e+03, 2.000000000000000000e+00, 0.000000000000000000e+00, 1.000000000000000000e+02
3.700000000000000000e+01, 4.128717999999999847e+03, 4.164103000000000065e+03, 4.172307999999999993e+03, 4.196922999999999774e+03, 4.180512999999999920e+03, 2.000000000000000000e+00, 0.000000000000000000e+00, 1.000000000000000000e+02
3.800000000000000000e+01, 4.143590000000000146e+03, 4.176409999999999854e+03, 4.184103000000000065e+03, 4.206667000000000371e+03, 4.194872000000000298e+03, 2.000000000000000000e+00, 0.000000000000000000e+00, 1.000000000000000000e+02
3.900000000000000000e+01, 4.109230999999999767e+03, 4.123077000000000226e+03, 4.133845999999999549e+03, 4.181025999999999840e+03, 4.156922999999999774e+03, 2.000000000000000000e+00, 0.000000000000000000e+00, 1.000000000000000000e+02
4.000000000000000000e+01, 4.121025999999999840e+03, 4.139487000000000080e+03, 4.152820999999999913e+03, 4.171795000000000073e+03, 4.165640999999999622e+03, 2.000000000000000000e+00, 0.000000000000000000e+00, 1.000000000000000000e+02
4.100000000000000000e+01, 4.110769000000000233e+03, 4.125127999999999702e+03, 4.163077000000000226e+03, 4.175385000000000218e+03, 4.160512999999999920e+03, 2.000000000000000000e+00, 0.000000000000000000e+00, 1.000000000000000000e+02
4.200000000000000000e+01, 4.112820999999999913e+03, 4.114872000000000298e+03, 4.157948999999999614e+03, 4.177948999999999614e+03, 4.176409999999999854e+03, 2.000000000000000000e+00, 0.000000000000000000e+00, 1.000000000000000000e+02
4.300000000000000000e+01, 4.143077000000000226e+03, 4.160000000000000000e+03, 4.180512999999999920e+03, 4.192307999999999993e+03, 4.226667000000000371e+03, 2.000000000000000000e+00, 0.000000000000000000e+00, 1.000000000000000000e+02
4.400000000000000000e+01, 4.120000000000000000e+03, 4.151795000000000073e+03, 4.175385000000000218e+03, 4.185127999999999702e+03, 4.209743999999999687e+03, 2.000000000000000000e+00, 0.000000000000000000e+00, 1.000000000000000000e+02
4.500000000000000000e+01, 4.144103000000000065e+03, 4.166154000000000451e+03, 4.213845999999999549e+03, 4.180000000000000000e+03, 4.237435999999999694e+03, 2.000000000000000000e+00, 0.000000000000000000e+00, 1.000000000000000000e+02
4.600000000000000000e+01, 4.126154000000000451e+03, 4.157948999999999614e+03, 4.204614999999999782e+03, 4.183590000000000146e+03, 4.231282000000000153e+03, 2.000000000000000000e+00, 0.000000000000000000e+00, 1.000000000000000000e+02
4.700000000000000000e+01, 4.095896999999999935e+03, 4.153845999999999549e+03, 4.192820999999999913e+03, 4.195385000000000218e+03, 4.210256000000000313e+03, 2.000000000000000000e+00, 0.000000000000000000e+00, 1.000000000000000000e+02
4.800000000000000000e+01, 4.125640999999999622e+03, 4.190769000000000233e+03, 4.221025999999999840e+03, 4.205127999999999702e+03, 4.240512999999999920e+03, 2.000000000000000000e+00, 0.000000000000000000e+00, 1.000000000000000000e+02
4.900000000000000000e+01, 4.106667000000000371e+03, 4.172307999999999993e+03, 4.181537999999999556e+03, 4.181025999999999840e+03, 4.206667000000000371e+03, 2.000000000000000000e+00, 0.000000000000000000e+00, 1.000000000000000000e+02
5.000000000000000000e+01, 4.118462000000000444e+03, 4.176409999999999854e+03, 4.190256000000000313e+03, 4.182051000000000386e+03, 4.217948999999999614e+03, 2.000000000000000000e+00, 0.000000000000000000e+00, 1.000000000000000000e+02
5.100000000000000000e+01, 4.111282000000000153e+03, 4.166154000000000451e+03, 4.189743999999999687e+03, 4.198462000000000444e+03, 4.222564000000000306e+03, 2.000000000000000000e+00, 0.000000000000000000e+00, 1.000000000000000000e+02
5.200000000000000000e+01, 4.088717999999999847e+03, 4.157948999999999614e+03, 4.160512999999999920e+03, 4.188717999999999847e+03, 4.190769000000000233e+03, 2.000000000000000000e+00, 0.000000000000000000e+00, 1.000000000000000000e+02
5.300000000000000000e+01, 4.112820999999999913e+03, 4.190769000000000233e+03, 4.176409999999999854e+03, 4.182051000000000386e+03, 4.207179000000000087e+03, 2.000000000000000000e+00, 0.000000000000000000e+00, 1.000000000000000000e+02
5.400000000000000000e+01, 4.091795000000000073e+03, 4.153845999999999549e+03, 4.164614999999999782e+03, 4.170256000000000313e+03, 4.189743999999999687e+03, 2.000000000000000000e+00, 0.000000000000000000e+00, 1.000000000000000000e+02
5.500000000000000000e+01, 4.102564000000000306e+03, 4.168204999999999927e+03, 4.195896999999999935e+03, 4.171282000000000153e+03, 4.207179000000000087e+03, 2.000000000000000000e+00, 0.000000000000000000e+00, 1.000000000000000000e+02
5.600000000000000000e+01, 4.089231000000000222e+03, 4.172307999999999993e+03, 4.200512999999999920e+03, 4.164103000000000065e+03, 4.200000000000000000e+03, 2.000000000000000000e+00, 0.000000000000000000e+00, 1.000000000000000000e+02
5.700000000000000000e+01, 4.056922999999999774e+03, 4.149743999999999687e+03, 4.174872000000000298e+03, 4.152820999999999913e+03, 4.164614999999999782e+03, 2.000000000000000000e+00, 0.000000000000000000e+00, 1.000000000000000000e+02
5.800000000000000000e+01, 4.091795000000000073e+03, 4.188717999999999847e+03, 4.207179000000000087e+03, 4.177948999999999614e+03, 4.198974000000000160e+03, 2.000000000000000000e+00, 0.000000000000000000e+00, 1.000000000000000000e+02
5.900000000000000000e+01, 4.076922999999999774e+03, 4.164103000000000065e+03, 4.188204999999999927e+03, 4.187179000000000087e+03, 4.193332999999999629e+03, 2.000000000000000000e+00, 0.000000000000000000e+00, 1.000000000000000000e+02
6.000000000000000000e+01, 4.083590000000000146e+03, 4.170256000000000313e+03, 4.196409999999999854e+03, 4.188717999999999847e+03, 4.212307999999999993e+03, 2.000000000000000000e+00, 0.000000000000000000e+00, 1.000000000000000000e+02
6.100000000000000000e+01, 4.087179000000000087e+03, 4.192820999999999913e+03, 4.205640999999999622e+03, 4.197435999999999694e+03, 4.224103000000000065e+03, 2.000000000000000000e+00, 0.000000000000000000e+00, 1.000000000000000000e+02
6.200000000000000000e+01, 4.057436000000000149e+03, 4.174359000000000378e+03, 4.176922999999999774e+03, 4.184614999999999782e+03, 4.190256000000000313e+03, 2.000000000000000000e+00, 0.000000000000000000e+00, 1.000000000000000000e+02
6.300000000000000000e+01, 4.070255999999999858e+03, 4.190769000000000233e+03, 4.188204999999999927e+03, 4.181537999999999556e+03, 4.211795000000000073e+03, 2.000000000000000000e+00, 0.000000000000000000e+00, 1.000000000000000000e+02
6.400000000000000000e+01, 4.035896999999999935e+03, 4.153845999999999549e+03, 4.152820999999999913e+03, 4.173332999999999629e+03, 4.186154000000000451e+03, 2.000000000000000000e+00, 0.000000000000000000e+00, 1.000000000000000000e+02
6.500000000000000000e+01, 4.046153999999999996e+03, 4.155896999999999935e+03, 4.160000000000000000e+03, 4.177948999999999614e+03, 4.190769000000000233e+03, 2.000000000000000000e+00, 0.000000000000000000e+00, 1.000000000000000000e+02
6.600000000000000000e+01, 4.067692000000000007e+03, 4.186667000000000371e+03, 4.191282000000000153e+03, 4.199487000000000080e+03, 4.216922999999999774e+03, 2.000000000000000000e+00, 0.000000000000000000e+00, 1.000000000000000000e+02
6.700000000000000000e+01, 4.046666999999999916e+03, 4.182564000000000306e+03, 4.184614999999999782e+03, 4.195896999999999935e+03, 4.203077000000000226e+03, 2.000000000000000000e+00, 0.000000000000000000e+00, 1.000000000000000000e+02
6.800000000000000000e+01, 4.081538000000000011e+03, 4.221537999999999556e+03, 4.220512999999999920e+03, 4.185640999999999622e+03, 4.240000000000000000e+03, 2.000000000000000000e+00, 0.000000000000000000e+00, 1.000000000000000000e+02
6.900000000000000000e+01, 4.065128000000000156e+03, 4.203077000000000226e+03, 4.210256000000000313e+03, 4.177435999999999694e+03, 4.225127999999999702e+03, 2.000000000000000000e+00, 0.000000000000000000e+00, 1.000000000000000000e+02
7.000000000000000000e+01, 4.060512999999999920e+03, 4.207179000000000087e+03, 4.218974000000000160e+03, 4.187692000000000007e+03, 4.223077000000000226e+03, 2.000000000000000000e+00, 0.000000000000000000e+00, 1.000000000000000000e+02
7.100000000000000000e+01, 4.083590000000000146e+03, 4.235896999999999935e+03, 4.237948999999999614e+03, 4.198974000000000160e+03, 4.247692000000000007e+03, 2.000000000000000000e+00, 0.000000000000000000e+00, 1.000000000000000000e+02
7.200000000000000000e+01, 4.071795000000000073e+03, 4.215385000000000218e+03, 4.217948999999999614e+03, 4.191282000000000153e+03, 4.229743999999999687e+03, 2.000000000000000000e+00, 0.000000000000000000e+00, 1.000000000000000000e+02
7.300000000000000000e+01, 4.097435999999999694e+03, 4.246154000000000451e+03, 4.251282000000000153e+03, 4.206667000000000371e+03, 4.257948999999999614e+03, 2.000000000000000000e+00, 0.000000000000000000e+00, 1.000000000000000000e+02
7.400000000000000000e+01, 4.074871999999999844e+03, 4.229743999999999687e+03, 4.229743999999999687e+03, 4.204614999999999782e+03, 4.236922999999999774e+03, 2.000000000000000000e+00, 0.000000000000000000e+00, 1.000000000000000000e+02
7.500000000000000000e+01, 4.066153999999999996e+03, 4.223590000000000146e+03, 4.209230999999999767e+03, 4.197435999999999694e+03, 4.225127999999999702e+03, 2.000000000000000000e+00, 0.000000000000000000e+00, 1.000000000000000000e+02
7.600000000000000000e+01, 4.083077000000000226e+03, 4.248204999999999927e+03, 4.225127999999999702e+03, 4.218974000000000160e+03, 4.252307999999999993e+03, 2.000000000000000000e+00, 0.000000000000000000e+00, 1.000000000000000000e+02
7.700000000000000000e+01, 4.057436000000000149e+03, 4.215385000000000218e+03, 4.205127999999999702e+03, 4.226667000000000371e+03, 4.231282000000000153e+03, 2.000000000000000000e+00, 0.000000000000000000e+00, 1.000000000000000000e+02
7.800000000000000000e+01, 4.082050999999999931e+03, 4.233845999999999549e+03, 4.226667000000000371e+03, 4.233332999999999629e+03, 4.254359000000000378e+03, 2.000000000000000000e+00, 0.000000000000000000e+00, 1.000000000000000000e+02
7.900000000000000000e+01, 4.065128000000000156e+03, 4.229743999999999687e+03, 4.208204999999999927e+03, 4.223590000000000146e+03, 4.243077000000000226e+03, 2.000000000000000000e+00, 0.000000000000000000e+00, 1.000000000000000000e+02
8.000000000000000000e+01, 4.049231000000000222e+03, 4.229743999999999687e+03, 4.203077000000000226e+03, 4.207179000000000087e+03, 4.230769000000000233e+03, 2.000000000000000000e+00, 0.000000000000000000e+00, 1.000000000000000000e+02
8.100000000000000000e+01, 4.066153999999999996e+03, 4.246154000000000451e+03, 4.229230999999999767e+03, 4.215896999999999935e+03, 4.257435999999999694e+03, 2.000000000000000000e+00, 0.000000000000000000e+00, 1.000000000000000000e+02
8.200000000000000000e+01, 4.036409999999999854e+03, 4.213332999999999629e+03, 4.198974000000000160e+03, 4.213332999999999629e+03, 4.228204999999999927e+03, 2.000000000000000000e+00, 0.000000000000000000e+00, 1.000000000000000000e+02
8.300000000000000000e+01, 4.064103000000000065e+03, 4.250256000000000313e+03, 4.230256000000000313e+03, 4.212307999999999993e+03, 4.247179000000000087e+03, 2.000000000000000000e+00, 0.000000000000000000e+00, 1.000000000000000000e+02
8.400000000000000000e+01, 4.064614999999999782e+03, 4.254359000000000378e+03, 4.236922999999999774e+03, 4.208204999999999927e+03, 4.243590000000000146e+03, 2.000000000000000000e+00, 0.000000000000000000e+00, 1.000000000000000000e+02
8.500000000000000000e+01, 4.042563999999999851e+03, 4.240000000000000000e+03, 4.210256000000000313e+03, 4.200512999999999920e+03, 4.223077000000000226e+03, 2.000000000000000000e+00, 0.000000000000000000e+00, 1.000000000000000000e+02
8.600000000000000000e+01, 4.052307999999999993e+03, 4.256409999999999854e+03, 4.216409999999999854e+03, 4.202051000000000386e+03, 4.240512999999999920e+03, 2.000000000000000000e+00, 0.000000000000000000e+00, 1.000000000000000000e+02
8.700000000000000000e+01, 4.023077000000000226e+03, 4.217435999999999694e+03, 4.189230999999999767e+03, 4.195896999999999935e+03, 4.210769000000000233e+03, 2.000000000000000000e+00, 0.000000000000000000e+00, 1.000000000000000000e+02
8.800000000000000000e+01, 4.040000000000000000e+03, 4.233845999999999549e+03, 4.207179000000000087e+03, 4.213845999999999549e+03, 4.229230999999999767e+03, 2.000000000000000000e+00, 0.000000000000000000e+00, 1.000000000000000000e+02
8.900000000000000000e+01, 4.029744000000000142e+03, 4.246154000000000451e+03, 4.201537999999999556e+03, 4.225640999999999622e+03, 4.225640999999999622e+03, 2.000000000000000000e+00, 0.000000000000000000e+00, 1.000000000000000000e+02
9.000000000000000000e+01, 4.013846000000000004e+03, 4.237948999999999614e+03, 4.189230999999999767e+03, 4.218462000000000444e+03, 4.207179000000000087e+03, 2.000000000000000000e+00, 0.000000000000000000e+00, 1.000000000000000000e+02
9.100000000000000000e+01, 4.048204999999999927e+03, 4.256409999999999854e+03, 4.222051000000000386e+03, 4.238974000000000160e+03, 4.249230999999999767e+03, 2.000000000000000000e+00, 0.000000000000000000e+00, 1.000000000000000000e+02
9.200000000000000000e+01, 4.020000000000000000e+03, 4.221537999999999556e+03, 4.192820999999999913e+03, 4.242051000000000386e+03, 4.228717999999999847e+03, 2.000000000000000000e+00, 0.000000000000000000e+00, 1.000000000000000000e+02
9.300000000000000000e+01, 4.028717999999999847e+03, 4.240000000000000000e+03, 4.203077000000000226e+03, 4.231795000000000073e+03, 4.236922999999999774e+03, 2.000000000000000000e+00, 0.000000000000000000e+00, 1.000000000000000000e+02
9.400000000000000000e+01, 4.036409999999999854e+03, 4.252307999999999993e+03, 4.207692000000000007e+03, 4.232820999999999913e+03, 4.244614999999999782e+03, 2.000000000000000000e+00, 0.000000000000000000e+00, 1.000000000000000000e+02
9.500000000000000000e+01, 4.018974000000000160e+03, 4.242051000000000386e+03, 4.191282000000000153e+03, 4.230256000000000313e+03, 4.222564000000000306e+03, 2.000000000000000000e+00, 0.000000000000000000e+00, 1.000000000000000000e+02
9.600000000000000000e+01, 4.037949000000000069e+03, 4.274872000000000298e+03, 4.217948999999999614e+03, 4.229743999999999687e+03, 4.240512999999999920e+03, 2.000000000000000000e+00, 0.000000000000000000e+00, 1.000000000000000000e+02
9.700000000000000000e+01, 4.011282000000000153e+03, 4.246154000000000451e+03, 4.191795000000000073e+03, 4.224103000000000065e+03, 4.217435999999999694e+03, 2.000000000000000000e+00, 0.000000000000000000e+00, 1.000000000000000000e+02
9.800000000000000000e+01, 4.028204999999999927e+03, 4.258462000000000444e+03, 4.205640999999999622e+03, 4.232820999999999913e+03, 4.236409999999999854e+03, 2.000000000000000000e+00, 0.000000000000000000e+00, 1.000000000000000000e+02
9.900000000000000000e+01, 4.038974000000000160e+03, 4.266667000000000371e+03, 4.216922999999999774e+03, 4.225127999999999702e+03, 4.245127999999999702e+03, 2.000000000000000000e+00, 0.000000000000000000e+00, 1.000000000000000000e+02
1.000000000000000000e+02, 4.010255999999999858e+03, 4.235896999999999935e+03, 4.191795000000000073e+03, 4.208204999999999927e+03, 4.214359000000000378e+03, 2.000000000000000000e+00, 0.000000000000000000e+00, 1.000000000000000000e+02
1.010000000000000000e+02, 4.028204999999999927e+03, 4.260512999999999920e+03, 4.214359000000000378e+03, 4.234359000000000378e+03, 4.241025999999999840e+03, 2.000000000000000000e+00, 0.000000000000000000e+00, 1.000000000000000000e+02
1.020000000000000000e+02, 4.009231000000000222e+03, 4.235896999999999935e+03, 4.196922999999999774e+03, 4.238974000000000160e+03, 4.226667000000000371e+03, 2.000000000000000000e+00, 0.000000000000000000e+00, 1.000000000000000000e+02
1.030000000000000000e+02, 4.016922999999999774e+03, 4.240000000000000000e+03, 4.200512999999999920e+03, 4.220512999999999920e+03, 4.235385000000000218e+03, 2.000000000000000000e+00, 0.000000000000000000e+00, 1.000000000000000000e+02
1.040000000000000000e+02, 4.017949000000000069e+03, 4.256409999999999854e+03, 4.202051000000000386e+03, 4.219487000000000080e+03, 4.241025999999999840e+03, 2.000000000000000000e+00, 0.000000000000000000e+00, 1.000000000000000000e+02
1.050000000000000000e+02, 4.000512999999999920e+03, 4.237948999999999614e+03, 4.188717999999999847e+03, 4.221537999999999556e+03, 4.213845999999999549e+03, 2.000000000000000000e+00, 0.000000000000000000e+00, 1.000000000000000000e+02
1.060000000000000000e+02, 4.034358999999999924e+03, 4.264614999999999782e+03, 4.228204999999999927e+03, 4.224614999999999782e+03, 4.251282000000000153e+03, 2.000000000000000000e+00, 0.000000000000000000e+00, 1.000000000000000000e+02
1.070000000000000000e+02, 4.000512999999999920e+03, 4.235896999999999935e+03, 4.202051000000000386e+03, 4.212307999999999993e+03, 4.229230999999999767e+03, 2.000000000000000000e+00, 0.000000000000000000e+00, 1.000000000000000000e+02
1.080000000000000000e+02, 3.995896999999999935e+03, 4.244103000000000065e+03, 4.199487000000000080e+03, 4.207179000000000087e+03, 4.217435999999999694e+03, 2.000000000000000000e+00, 0.000000000000000000e+00, 1.000000000000000000e+02
1.090000000000000000e+02, 4.016409999999999854e+03, 4.274872000000000298e+03, 4.212307999999999993e+03, 4.209743999999999687e+03, 4.233845999999999549e+03, 2.000000000000000000e+00, 0.000000000000000000e+00, 1.000000000000000000e+02
1.100000000000000000e+02, 3.985128000000000156e+03, 4.260512999999999920e+03, 4.180000000000000000e+03, 4.201537999999999556e+03, 4.208717999999999847e+03, 2.000000000000000000e+00, 0.000000000000000000e+00, 1.000000000000000000e+02
1.110000000000000000e+02, 4.004103000000000065e+03, 4.285127999999999702e+03, 4.201025999999999840e+03, 4.207179000000000087e+03, 4.233845999999999549e+03, 2.000000000000000000e+00, 0.000000000000000000e+00, 1.000000000000000000e+02
1.120000000000000000e+02, 3.990768999999999778e+03, 4.252307999999999993e+03, 4.185127999999999702e+03, 4.199487000000000080e+03, 4.216409999999999854e+03, 2.000000000000000000e+00, 0.000000000000000000e+00, 1.000000000000000000e+02
1.130000000000000000e+02, 3.982050999999999931e+03, 4.244103000000000065e+03, 4.182564000000000306e+03, 4.195896999999999935e+03, 4.208204999999999927e+03, 2.000000000000000000e+00, 0.000000000000000000e+00, 1.000000000000000000e+02
1.140000000000000000e+02, 3.989744000000000142e+03, 4.274872000000000298e+03, 4.196922999999999774e+03, 4.206667000000000371e+03, 4.230256000000000313e+03, 2.000000000000000000e+00, 0.000000000000000000e+00, 1.000000000000000000e+02
1.150000000000000000e+02, 3.964614999999999782e+03, 4.252307999999999993e+03, 4.170256000000000313e+03, 4.198974000000000160e+03, 4.208204999999999927e+03, 2.000000000000000000e+00, 0.000000000000000000e+00, 1.000000000000000000e+02
1.160000000000000000e+02, 3.996922999999999774e+03, 4.272820999999999913e+03, 4.204614999999999782e+03, 4.212307999999999993e+03, 4.244103000000000065e+03, 2.000000000000000000e+00, 0.000000000000000000e+00, 1.000000000000000000e+02
1.170000000000000000e+02, 3.986666999999999916e+03, 4.256409999999999854e+03, 4.202564000000000306e+03, 4.219487000000000080e+03, 4.243590000000000146e+03, 2.000000000000000000e+00, 0.000000000000000000e+00, 1.000000000000000000e+02
1.180000000000000000e+02, 3.971282000000000153e+03, 4.254359000000000378e+03, 4.195896999999999935e+03, 4.209743999999999687e+03, 4.231282000000000153e+03, 2.000000000000000000e+00, 0.000000000000000000e+00, 1.000000000000000000e+02
1.190000000000000000e+02, 3.981538000000000011e+03, 4.285127999999999702e+03, 4.217435999999999694e+03, 4.221025999999999840e+03, 4.247179000000000087e+03, 2.000000000000000000e+00, 0.000000000000000000e+00, 1.000000000000000000e+02
1.200000000000000000e+02, 3.948717999999999847e+03, 4.256409999999999854e+03, 4.193332999999999629e+03, 4.221537999999999556e+03, 4.218974000000000160e+03, 2.000000000000000000e+00, 0.000000000000000000e+00, 1.000000000000000000e+02
1.210000000000000000e+02, 3.965128000000000156e+03, 4.283077000000000226e+03, 4.213845999999999549e+03, 4.216922999999999774e+03, 4.242051000000000386e+03, 2.000000000000000000e+00, 0.000000000000000000e+00, 1.000000000000000000e+02
1.220000000000000000e+02, 3.944103000000000065e+03, 4.283077000000000226e+03, 4.202564000000000306e+03, 4.202051000000000386e+03, 4.229230999999999767e+03, 2.000000000000000000e+00, 0.000000000000000000e+00, 1.000000000000000000e+02
1.230000000000000000e+02, 3.926666999999999916e+03, 4.274872000000000298e+03, 4.195385000000000218e+03, 4.197948999999999614e+03, 4.210256000000000313e+03, 2.000000000000000000e+00, 0.000000000000000000e+00, 1.000000000000000000e+02
1.240000000000000000e+02, 3.946153999999999996e+03, 4.299487000000000080e+03, 4.218974000000000160e+03, 4.213332999999999629e+03, 4.233332999999999629e+03, 2.000000000000000000e+00, 0.000000000000000000e+00, 1.000000000000000000e+02
1.250000000000000000e+02, 3.901025999999999840e+03, 4.272820999999999913e+03, 4.170256000000000313e+03, 4.197948999999999614e+03, 4.194872000000000298e+03, 2.000000000000000000e+00, 0.000000000000000000e+00, 1.000000000000000000e+02
1.260000000000000000e+02, 3.903077000000000226e+03, 4.291282000000000153e+03, 4.166667000000000371e+03, 4.191282000000000153e+03, 4.204614999999999782e+03, 2.000000000000000000e+00, 0.000000000000000000e+00, 1.000000000000000000e+02
1.270000000000000000e+02, 3.903590000000000146e+03, 4.285127999999999702e+03, 4.170256000000000313e+03, 4.198462000000000444e+03, 4.213845999999999549e+03, 2.000000000000000000e+00, 0.000000000000000000e+00, 1.000000000000000000e+02
0.000000000000000000e+00, 3.893846000000000004e+03, 4.272820999999999913e+03, 4.172820999999999913e+03, 4.194359000000000378e+03, 4.203077000000000226e+03, 2.000000000000000000e+00, 0.000000000000000000e+00, 1.000000000000000000e+02
1.000000000000000000e+00, 3.911282000000000153e+03, 4.303590000000000146e+03, 4.197435999999999694e+03, 4.200000000000000000e+03, 4.222564000000000306e+03, 2.000000000000000000e+00, 0.000000000000000000e+00, 1.000000000000000000e+02
2.000000000000000000e+00, 3.874871999999999844e+03, 4.270769000000000233e+03, 4.162051000000000386e+03, 4.199487000000000080e+03, 4.192307999999999993e+03, 2.000000000000000000e+00, 0.000000000000000000e+00, 1.000000000000000000e+02
3.000000000000000000e+00, 3.882050999999999931e+03, 4.276922999999999774e+03, 4.180000000000000000e+03, 4.200512999999999920e+03, 4.210769000000000233e+03, 2.000000000000000000e+00, 0.000000000000000000e+00, 1.000000000000000000e+02
4.000000000000000000e+00, 3.873846000000000004e+03, 4.283077000000000226e+03, 4.190256000000000313e+03, 4.188717999999999847e+03, 4.212820999999999913e+03, 2.000000000000000000e+00, 0.000000000000000000e+00, 1.000000000000000000e+02
5.000000000000000000e+00, 3.844103000000000065e+03, 4.268717999999999847e+03, 4.177948999999999614e+03, 4.174359000000000378e+03, 4.181537999999999556e+03, 2.000000000000000000e+00, 0.000000000000000000e+00, 1.000000000000000000e+02
6.000000000000000000e+00, 3.868717999999999847e+03, 4.283077000000000226e+03, 4.206667000000000371e+03, 4.195896999999999935e+03, 4.209743999999999687e+03, 2.000000000000000000e+00, 0.000000000000000000e+00, 1.000000000000000000e+02
7.000000000000000000e+00, 3.854358999999999924e+03, 4.258462000000000444e+03, 4.188204999999999927e+03, 4.203077000000000226e+03, 4.204103000000000065e+03, 2.000000000000000000e+00, 0.000000000000000000e+00, 1.000000000000000000e+02
8.000000000000000000e+00, 3.870255999999999858e+03, 4.299487000000000080e+03, 4.212307999999999993e+03, 4.203590000000000146e+03, 4.230769000000000233e+03, 2.000000000000000000e+00, 0.000000000000000000e+00, 1.000000000000000000e+02
9.000000000000000000e+00, 3.861025999999999840e+03, 4.309743999999999687e+03, 4.215385000000000218e+03, 4.204103000000000065e+03, 4.230769000000000233e+03, 2.000000000000000000e+00, 0.000000000000000000e+00, 1.000000000000000000e+02
1.000000000000000000e+01, 3.827179000000000087e+03, 4.270769000000000233e+03, 4.180512999999999920e+03, 4.200512999999999920e+03, 4.194872000000000298e+03, 2.000000000000000000e+00, 0.000000000000000000e+00, 1.000000000000000000e+02
1.100000000000000000e+01, 3.847692000000000007e+03, 4.301537999999999556e+03, 4.205127999999999702e+03, 4.217435999999999694e+03, 4.226154000000000451e+03, 2.000000000000000000e+00, 0.000000000000000000e+00, 1.000000000000000000e+02
1.200000000000000000e+01, 3.811282000000000153e+03, 4.278974000000000160e+03, 4.185127999999999702e+03, 4.213332999999999629e+03, 4.203590000000000146e+03, 2.000000000000000000e+00, 0.000000000000000000e+00, 1.000000000000000000e+02
1.300000000000000000e+01, 3.806666999999999916e+03, 4.283077000000000226e+03, 4.189743999999999687e+03, 4.212820999999999913e+03, 4.207692000000000007e+03, 2.000000000000000000e+00, 0.000000000000000000e+00, 1.000000000000000000e+02
1.400000000000000000e+01, 3.799487000000000080e+03, 4.295385000000000218e+03, 4.188717999999999847e+03, 4.212820999999999913e+03, 4.220000000000000000e+03, 2.000000000000000000e+00, 0.000000000000000000e+00, 1.000000000000000000e+02
1.500000000000000000e+01, 3.757436000000000149e+03, 4.270769000000000233e+03, 4.161025999999999840e+03, 4.189743999999999687e+03, 4.188717999999999847e+03, 2.000000000000000000e+00, 0.000000000000000000e+00, 1.000000000000000000e+02
1.600000000000000000e+01, 3.783590000000000146e+03, 4.303590000000000146e+03, 4.201537999999999556e+03, 4.204103000000000065e+03, 4.222564000000000306e+03, 2.000000000000000000e+00, 0.000000000000000000e+00, 1.000000000000000000e+02
1.700000000000000000e+01, 3.771282000000000153e+03, 4.299487000000000080e+03, 4.208204999999999927e+03, 4.229230999999999767e+03, 4.222564000000000306e+03, 2.000000000000000000e+00, 0.000000000000000000e+00, 1.000000000000000000e+02
1.800000000000000000e+01, 3.772307999999999993e+03, 4.311795000000000073e+03, 4.230769000000000233e+03, 4.236922999999999774e+03, 4.241025999999999840e+03, 2.000000000000000000e+00, 0.000000000000000000e+00, 1.000000000000000000e+02
1.900000000000000000e+01, 3.770768999999999778e+03, 4.330256000000000313e+03, 4.247692000000000007e+03, 4.234872000000000298e+03, 4.268204999999999927e+03, 2.000000000000000000e+00, 0.000000000000000000e+00, 1.000000000000000000e+02
2.000000000000000000e+01, 3.729744000000000142e+03, 4.317948999999999614e+03, 4.235385000000000218e+03, 4.234359000000000378e+03, 4.249743999999999687e+03, 2.000000000000000000e+00, 0.000000000000000000e+00, 1.000000000000000000e+02
2.100000000000000000e+01, 3.733846000000000004e+03, 4.344614999999999782e+03, 4.276922999999999774e+03, 4.257435999999999694e+03, 4.274872000000000298e+03, 2.000000000000000000e+00, 0.000000000000000000e+00, 1.000000000000000000e+02
2.200000000000000000e+01, 3.687692000000000007e+03, 4.315896999999999935e+03, 4.255896999999999935e+03, 4.252307999999999993e+03, 4.245640999999999622e+03, 2.000000000000000000e+00, 0.000000000000000000e+00, 1.000000000000000000e+02
2.300000000000000000e+01, 3.666666999999999916e+03, 4.313845999999999549e+03, 4.251795000000000073e+03, 4.232307999999999993e+03, 4.239487000000000080e+03, 2.000000000000000000e+00, 0.000000000000000000e+00, 1.000000000000000000e+02
2.400000000000000000e+01, 3.670255999999999858e+03, 4.334359000000000378e+03, 4.276922999999999774e+03, 4.234359000000000378e+03, 4.269230999999999767e+03, 2.000000000000000000e+00, 0.000000000000000000e+00, 1.000000000000000000e+02
2.500000000000000000e+01, 3.614871999999999844e+03, 4.305640999999999622e+03, 4.247179000000000087e+03, 4.232307999999999993e+03, 4.240512999999999920e+03, 2.000000000000000000e+00, 0.000000000000000000e+00, 1.000000000000000000e+02
2.600000000000000000e+01, 3.596922999999999774e+03, 4.326154000000000451e+03, 4.257948999999999614e+03, 4.238462000000000444e+03, 4.251282000000000153e+03, 2.000000000000000000e+00, 0.000000000000000000e+00, 1.000000000000000000e+02
2.700000000000000000e+01, 3.551795000000000073e+03, 4.301537999999999556e+03, 4.242051000000000386e+03, 4.238974000000000160e+03, 4.232820999999999913e+03, 2.000000000000000000e+00, 0.000000000000000000e+00, 1.000000000000000000e+02
2.800000000000000000e+01, 3.517436000000000149e+03, 4.291282000000000153e+03, 4.229230999999999767e+03, 4.232307999999999993e+03, 4.226154000000000451e+03, 2.000000000000000000e+00, 0.000000000000000000e+00, 1.000000000000000000e+02
2.900000000000000000e+01, 3.507692000000000007e+03, 4.313845999999999549e+03, 4.243590000000000146e+03, 4.234359000000000378e+03, 4.254872000000000298e+03, 2.000000000000000000e+00, 0.000000000000000000e+00, 1.000000000000000000e+02
3.000000000000000000e+01, 3.459487000000000080e+03, 4.283077000000000226e+03, 4.234359000000000378e+03, 4.237948999999999614e+03, 4.234872000000000298e+03, 2.000000000000000000e+00, 0.000000000000000000e+00, 1.000000000000000000e+02
3.100000000000000000e+01, 3.443077000000000226e+03, 4.301537999999999556e+03, 4.270769000000000233e+03, 4.251795000000000073e+03, 4.251282000000000153e+03, 2.000000000000000000e+00, 0.000000000000000000e+00, 1.000000000000000000e+02
3.200000000000000000e+01, 3.379487000000000080e+03, 4.285127999999999702e+03, 4.255385000000000218e+03, 4.243590000000000146e+03, 4.237435999999999694e+03, 2.000000000000000000e+00, 0.000000000000000000e+00, 1.000000000000000000e+02
3.300000000000000000e+01, 3.327179000000000087e+03, 4.270769000000000233e+03, 4.240512999999999920e+03, 4.236409999999999854e+03, 4.229230999999999767e+03, 2.000000000000000000e+00, 0.000000000000000000e+00, 1.000000000000000000e+02
3.400000000000000000e+01, 3.305641000000000076e+03, 4.295385000000000218e+03, 4.265127999999999702e+03, 4.252820999999999913e+03, 4.250769000000000233e+03, 2.000000000000000000e+00, 0.000000000000000000e+00, 1.000000000000000000e+02
3.500000000000000000e+01, 3.223590000000000146e+03, 4.266667000000000371e+03, 4.233332999999999629e+03, 4.246154000000000451e+03, 4.212820999999999913e+03, 2.000000000000000000e+00, 0.000000000000000000e+00, 1.000000000000000000e+02
3.600000000000000000e+01, 3.189744000000000142e+03, 4.278974000000000160e+03, 4.246154000000000451e+03, 4.242564000000000306e+03, 4.234359000000000378e+03, 2.000000000000000000e+00, 0.000000000000000000e+00, 1.000000000000000000e+02
3.700000000000000000e+01, 3.140512999999999920e+03, 4.264614999999999782e+03, 4.254359000000000378e+03, 4.241537999999999556e+03, 4.245640999999999622e+03, 2.000000000000000000e+00, 0.000000000000000000e+00, 1.000000000000000000e+02
3.800000000000000000e+01, 3.090255999999999858e+03, 4.250256000000000313e+03, 4.256922999999999774e+03, 4.244103000000000065e+03, 4.239487000000000080e+03, 2.000000000000000000e+00, 0.000000000000000000e+00, 1.000000000000000000e+02
3.900000000000000000e+01, 3.069231000000000222e+03, 4.276922999999999774e+03, 4.271282000000000153e+03, 4.261025999999999840e+03, 4.260512999999999920e+03, 2.000000000000000000e+00, 0.000000000000000000e+00, 1.000000000000000000e+02
4.000000000000000000e+01, 2.987179000000000087e+03, 4.244103000000000065e+03, 4.228204999999999927e+03, 4.244614999999999782e+03, 4.220000000000000000e+03, 2.000000000000000000e+00, 0.000000000000000000e+00, 1.000000000000000000e+02
4.100000000000000000e+01, 2.964614999999999782e+03, 4.262564000000000306e+03, 4.256922999999999774e+03, 4.237435999999999694e+03, 4.239487000000000080e+03, 2.000000000000000000e+00, 0.000000000000000000e+00, 1.000000000000000000e+02
4.200000000000000000e+01, 2.935896999999999935e+03, 4.258462000000000444e+03, 4.267179000000000087e+03, 4.248717999999999847e+03, 4.253332999999999629e+03, 2.000000000000000000e+00, 0.000000000000000000e+00, 1.000000000000000000e+02
4.300000000000000000e+01, 2.887692000000000007e+03, 4.227692000000000007e+03, 4.235896999999999935e+03, 4.240512999999999920e+03, 4.232820999999999913e+03, 2.000000000000000000e+00, 0.000000000000000000e+00, 1.000000000000000000e+02
4.400000000000000000e+01, 2.892820999999999913e+03, 4.254359000000000378e+03, 4.255385000000000218e+03, 4.230769000000000233e+03, 4.265127999999999702e+03, 2.000000000000000000e+00, 0.000000000000000000e+00, 1.000000000000000000e+02
4.500000000000000000e+01, 2.847692000000000007e+03, 4.233845999999999549e+03, 4.238974000000000160e+03, 4.227179000000000087e+03, 4.249743999999999687e+03, 2.000000000000000000e+00, 0.000000000000000000e+00, 1.000000000000000000e+02
4.600000000000000000e+01, 2.828204999999999927e+03, 4.246154000000000451e+03, 4.251282000000000153e+03, 4.249230999999999767e+03, 4.248204999999999927e+03, 2.000000000000000000e+00, 0.000000000000000000e+00, 1.000000000000000000e+02
4.700000000000000000e+01, 2.807179000000000087e+03, 4.248204999999999927e+03, 4.249230999999999767e+03, 4.251282000000000153e+03, 4.234872000000000298e+03, 2.000000000000000000e+00, 0.000000000000000000e+00, 1.000000000000000000e+02
4.800000000000000000e+01, 2.783590000000000146e+03, 4.229743999999999687e+03, 4.238462000000000444e+03, 4.231282000000000153e+03, 4.218974000000000160e+03, 2.000000000000000000e+00, 0.000000000000000000e+00, 1.000000000000000000e+02
4.900000000000000000e+01, 2.813333000000000084e+03, 4.262564000000000306e+03, 4.276409999999999854e+03, 4.247692000000000007e+03, 4.263590000000000146e+03, 2.000000000000000000e+00, 0.000000000000000000e+00, 1.000000000000000000e+02
5.000000000000000000e+01, 2.795385000000000218e+03, 4.240000000000000000e+03, 4.249743999999999687e+03, 4.255896999999999935e+03, 4.243077000000000226e+03, 2.000000000000000000e+00, 0.000000000000000000e+00, 1.000000000000000000e+02
5.100000000000000000e+01, 2.811795000000000073e+03, 4.244103000000000065e+03, 4.253845999999999549e+03, 4.250256000000000313e+03, 4.252307999999999993e+03, 2.000000000000000000e+00, 0.000000000000000000e+00, 1.000000000000000000e+02
5.200000000000000000e+01, 2.820512999999999920e+03, 4.248204999999999927e+03, 4.263590000000000146e+03, 4.247179000000000087e+03, 4.272307999999999993e+03, 2.000000000000000000e+00, 0.000000000000000000e+00, 1.000000000000000000e+02
5.300000000000000000e+01, 2.785641000000000076e+03, 4.223590000000000146e+03, 4.240512999999999920e+03, 4.241537999999999556e+03, 4.244103000000000065e+03, 2.000000000000000000e+00, 0.000000000000000000e+00, 1.000000000000000000e+02
5.400000000000000000e+01, 2.793846000000000004e+03, 4.248204999999999927e+03, 4.258462000000000444e+03, 4.251795000000000073e+03, 4.254359000000000378e+03, 2.000000000000000000e+00, 0.000000000000000000e+00, 1.000000000000000000e+02
5.500000000000000000e+01, 2.767692000000000007e+03, 4.221537999999999556e+03, 4.229230999999999767e+03, 4.245127999999999702e+03, 4.228717999999999847e+03, 2.000000000000000000e+00, 0.000000000000000000e+00, 1.000000000000000000e+02
5.600000000000000000e+01, 2.761025999999999840e+03, 4.233845999999999549e+03, 4.241025999999999840e+03, 4.241025999999999840e+03, 4.241537999999999556e+03, 2.000000000000000000e+00, 0.000000000000000000e+00, 1.000000000000000000e+02
5.700000000000000000e+01, 2.707692000000000007e+03, 4.254359000000000378e+03, 4.259487000000000080e+03, 4.246667000000000371e+03, 4.250769000000000233e+03, 2.000000000000000000e+00, 0.000000000000000000e+00, 1.000000000000000000e+02
5.800000000000000000e+01, 2.586153999999999996e+03, 4.223590000000000146e+03, 4.225127999999999702e+03, 4.233332999999999629e+03, 4.208717999999999847e+03, 2.000000000000000000e+00, 0.000000000000000000e+00, 1.000000000000000000e+02
5.900000000000000000e+01, 2.530255999999999858e+03, 4.244103000000000065e+03, 4.240512999999999920e+03, 4.236922999999999774e+03, 4.243077000000000226e+03, 2.000000000000000000e+00, 0.000000000000000000e+00, 1.000000000000000000e+02
6.000000000000000000e+01, 2.450768999999999778e+03, 4.227692000000000007e+03, 4.229230999999999767e+03, 4.241537999999999556e+03, 4.240000000000000000e+03, 2.000000000000000000e+00, 0.000000000000000000e+00, 1.000000000000000000e+02
6.100000000000000000e+01, 2.362563999999999851e+03, 4.233845999999999549e+03, 4.246667000000000371e+03, 4.243590000000000146e+03, 4.244614999999999782e+03, 2.000000000000000000e+00, 0.000000000000000000e+00, 1.000000000000000000e+02
6.200000000000000000e+01, 2.222563999999999851e+03, 4.246154000000000451e+03, 4.266154000000000451e+03, 4.248204999999999927e+03, 4.271282000000000153e+03, 2.000000000000000000e+00, 0.000000000000000000e+00, 1.000000000000000000e+02
6.300000000000000000e+01, 1.997949000000000069e+03, 4.207179000000000087e+03, 4.234359000000000378e+03, 4.242051000000000386e+03, 4.249743999999999687e+03, 2.000000000000000000e+00, 0.000000000000000000e+00, 1.000000000000000000e+02
6.400000000000000000e+01, 1.646153999999999996e+03, 4.233845999999999549e+03, 4.255385000000000218e+03, 4.251795000000000073e+03, 4.274359000000000378e+03, 2.000000000000000000e+00, 0.000000000000000000e+00, 1.000000000000000000e+02
6.500000000000000000e+01, 1.322050999999999931e+03, 4.219487000000000080e+03, 4.239487000000000080e+03, 4.246154000000000451e+03, 4.258462000000000444e+03, 2.000000000000000000e+00, 0.000000000000000000e+00, 1.000000000000000000e+02
6.600000000000000000e+01, 1.196923000000000002e+03, 4.215385000000000218e+03, 4.241025999999999840e+03, 4.242564000000000306e+03, 4.257948999999999614e+03, 2.000000000000000000e+00, 0.000000000000000000e+00, 1.000000000000000000e+02
6.700000000000000000e+01, 9.543590000000000373e+02, 4.240000000000000000e+03, 4.274872000000000298e+03, 4.261537999999999556e+03, 4.288204999999999927e+03, 2.000000000000000000e+00, 0.000000000000000000e+00, 1.000000000000000000e+02
6.800000000000000000e+01, 8.928210000000000264e+02, 4.219487000000000080e+03, 4.253845999999999549e+03, 4.246154000000000451e+03, 4.255896999999999935e+03, 2.000000000000000000e+00, 0.000000000000000000e+00, 1.000000000000000000e+02
6.900000000000000000e+01, 1.007178999999999974e+03, 4.256409999999999854e+03, 4.270256000000000313e+03, 4.236922999999999774e+03, 4.277435999999999694e+03, 2.000000000000000000e+00, 0.000000000000000000e+00, 1.000000000000000000e+02
7.000000000000000000e+01, 8.841029999999999518e+02, 4.246154000000000451e+03, 4.261025999999999840e+03, 4.258974000000000160e+03, 4.277435999999999694e+03, 2.000000000000000000e+00, 0.000000000000000000e+00, 1.000000000000000000e+02
7.100000000000000000e+01, 8.487179999999999609e+02, 4.231795000000000073e+03, 4.259487000000000080e+03, 4.268204999999999927e+03, 4.263077000000000226e+03, 2.000000000000000000e+00, 0.000000000000000000e+00, 1.000000000000000000e+02
7.200000000000000000e+01, 8.635900000000000318e+02, 4.266667000000000371e+03, 4.278974000000000160e+03, 4.241537999999999556e+03, 4.271282000000000153e+03, 2.000000000000000000e+00, 0.000000000000000000e+00, 1.000000000000000000e+02
7.300000000000000000e+01, 8.738460000000000036e+02, 4.248204999999999927e+03, 4.249230999999999767e+03, 4.218462000000000444e+03, 4.238462000000000444e+03, 2.000000000000000000e+00, 0.000000000000000000e+00, 1.000000000000000000e+02
7.400000000000000000e+01, 9.415380000000000109e+02, 4.264614999999999782e+03, 4.270256000000000313e+03, 4.249230999999999767e+03, 4.272307999999999993e+03, 2.000000000000000000e+00, 0.000000000000000000e+00, 1.000000000000000000e+02
7.500000000000000000e+01, 8.887179999999999609e+02, 4.254359000000000378e+03, 4.250769000000000233e+03, 4.254359000000000378e+03, 4.274872000000000298e+03, 2.000000000000000000e+00, 0.000000000000000000e+00, 1.000000000000000000e+02
7.600000000000000000e+01, 8.297440000000000282e+02, 4.244103000000000065e+03, 4.226667000000000371e+03, 4.227692000000000007e+03, 4.251282000000000153e+03, 2.000000000000000000e+00, 0.000000000000000000e+00, 1.000000000000000000e+02
7.700000000000000000e+01, 8.856409999999999627e+02, 4.301537999999999556e+03, 4.291282000000000153e+03, 4.260000000000000000e+03, 4.299487000000000080e+03, 2.000000000000000000e+00, 0.000000000000000000e+00, 1.000000000000000000e+02
7.800000000000000000e+01, 9.523079999999999927e+02, 4.346667000000000371e+03, 4.345127999999999702e+03, 4.310769000000000233e+03, 4.337435999999999694e+03, 2.000000000000000000e+00, 0.000000000000000000e+00, 1.000000000000000000e+02
7.900000000000000000e+01, 9.702559999999999718e+02, 4.408204999999999927e+03, 4.405127999999999702e+03, 4.344614999999999782e+03, 4.384614999999999782e+03, 2.000000000000000000e+00, 0.000000000000000000e+00, 1.000000000000000000e+02
8.000000000000000000e+01, 9.461539999999999964e+02, 4.393845999999999549e+03, 4.395896999999999935e+03, 4.351795000000000073e+03, 4.354359000000000378e+03, 2.000000000000000000e+00, 0.000000000000000000e+00, 1.000000000000000000e+02
8.100000000000000000e+01, 8.933329999999999700e+02, 4.383590000000000146e+03, 4.376409999999999854e+03, 4.339487000000000080e+03, 4.311795000000000073e+03, 2.000000000000000000e+00, 0.000000000000000000e+00, 1.000000000000000000e+02
8.200000000000000000e+01, 8.830769999999999982e+02, 4.432820999999999913e+03, 4.398462000000000444e+03, 4.332307999999999993e+03, 4.325127999999999702e+03, 2.000000000000000000e+00, 0.000000000000000000e+00, 1.000000000000000000e+02
8.300000000000000000e+01, 9.594869999999999663e+02, 4.404103000000000065e+03, 4.361537999999999556e+03, 4.316409999999999854e+03, 4.257948999999999614e+03, 2.000000000000000000e+00, 0.000000000000000000e+00, 1.000000000000000000e+02
8.400000000000000000e+01, 9.246150000000000091e+02, 4.426667000000000371e+03, 4.383590000000000146e+03, 4.326667000000000371e+03, 4.241025999999999840e+03, 2.000000000000000000e+00, 0.000000000000000000e+00, 1.000000000000000000e+02
8.500000000000000000e+01, 7.625639999999999645e+02, 4.461537999999999556e+03, 4.396922999999999774e+03, 4.337435999999999694e+03, 4.249230999999999767e+03, 2.000000000000000000e+00, 0.000000000000000000e+00, 1.000000000000000000e+02
8.600000000000000000e+01, 7.774360000000000355e+02, 4.467692000000000007e+03, 4.373845999999999549e+03, 4.324614999999999782e+03, 4.230256000000000313e+03, 2.000000000000000000e+00, 0.000000000000000000e+00, 1.000000000000000000e+02
8.700000000000000000e+01, 8.343590000000000373e+02, 4.496409999999999854e+03, 4.393845999999999549e+03, 4.325127999999999702e+03, 4.252820999999999913e+03, 2.000000000000000000e+00, 0.000000000000000000e+00, 1.000000000000000000e+02
8.800000000000000000e+01, 7.887179999999999609e+02, 4.477948999999999614e+03, 4.371795000000000073e+03, 4.323590000000000146e+03, 4.237948999999999614e+03, 2.000000000000000000e+00, 0.000000000000000000e+00, 1.000000000000000000e+02
8.900000000000000000e+01, 7.984619999999999891e+02, 4.508717999999999847e+03, 4.388204999999999927e+03, 4.337948999999999614e+03, 4.264103000000000065e+03, 2.000000000000000000e+00, 0.000000000000000000e+00, 1.000000000000000000e+02
9.000000000000000000e+01, 8.092309999999999945e+02, 4.529230999999999767e+03, 4.393332999999999629e+03, 4.344103000000000065e+03, 4.270256000000000313e+03, 2.000000000000000000e+00, 0.000000000000000000e+00, 1.000000000000000000e+02
9.100000000000000000e+01, 8.020510000000000446e+02, 4.512820999999999913e+03, 4.378462000000000444e+03, 4.331282000000000153e+03, 4.236922999999999774e+03, 2.000000000000000000e+00, 0.000000000000000000e+00, 1.000000000000000000e+02
9.200000000000000000e+01, 8.061539999999999964e+02, 4.541537999999999556e+03, 4.414872000000000298e+03, 4.342051000000000386e+03, 4.264614999999999782e+03, 2.000000000000000000e+00, 0.000000000000000000e+00, 1.000000000000000000e+02
9.300000000000000000e+01, 8.035900000000000318e+02, 4.514872000000000298e+03, 4.383590000000000146e+03, 4.332820999999999913e+03, 4.240512999999999920e+03, 2.000000000000000000e+00, 0.000000000000000000e+00, 1.000000000000000000e+02
9.400000000000000000e+01, 8.046150000000000091e+02, 4.514872000000000298e+03, 4.376922999999999774e+03, 4.325640999999999622e+03, 4.242051000000000386e+03, 2.000000000000000000e+00, 0.000000000000000000e+00, 1.000000000000000000e+02
9.500000000000000000e+01, 8.041029999999999518e+02, 4.516922999999999774e+03, 4.383590000000000146e+03, 4.340000000000000000e+03, 4.260000000000000000e+03, 2.000000000000000000e+00, 0.000000000000000000e+00, 1.000000000000000000e+02
9.600000000000000000e+01, 8.046150000000000091e+02, 4.488204999999999927e+03, 4.360512999999999920e+03, 4.336409999999999854e+03, 4.238462000000000444e+03, 2.000000000000000000e+00, 0.000000000000000000e+00, 1.000000000000000000e+02
9.700000000000000000e+01, 8.051280000000000427e+02, 4.518974000000000160e+03, 4.387692000000000007e+03, 4.333845999999999549e+03, 4.258974000000000160e+03, 2.000000000000000000e+00, 0.000000000000000000e+00, 1.000000000000000000e+02
9.800000000000000000e+01, 8.010259999999999536e+02, 4.500512999999999920e+03, 4.365127999999999702e+03, 4.329230999999999767e+03, 4.231795000000000073e+03, 2.000000000000000000e+00, 0.000000000000000000e+00, 1.000000000000000000e+02
9.900000000000000000e+01, 8.066670000000000300e+02, 4.504614999999999782e+03, 4.361025999999999840e+03, 4.335385000000000218e+03, 4.237435999999999694e+03, 2.000000000000000000e+00, 0.000000000000000000e+00, 1.000000000000000000e+02
1.000000000000000000e+02, 8.061539999999999964e+02, 4.523077000000000226e+03, 4.367692000000000007e+03, 4.340512999999999920e+03, 4.264103000000000065e+03, 2.000000000000000000e+00, 0.000000000000000000e+00, 1.000000000000000000e+02
1.010000000000000000e+02, 7.841029999999999518e+02, 4.500512999999999920e+03, 4.332307999999999993e+03, 4.317435999999999694e+03, 4.234359000000000378e+03, 2.000000000000000000e+00, 0.000000000000000000e+00, 1.000000000000000000e+02
1.020000000000000000e+02, 8.251280000000000427e+02, 4.525127999999999702e+03, 4.353332999999999629e+03, 4.311795000000000073e+03, 4.256922999999999774e+03, 2.000000000000000000e+00, 0.000000000000000000e+00, 1.000000000000000000e+02
1.030000000000000000e+02, 8.523079999999999927e+02, 4.498462000000000444e+03, 4.348717999999999847e+03, 4.323590000000000146e+03, 4.250256000000000313e+03, 2.000000000000000000e+00, 0.000000000000000000e+00, 1.000000000000000000e+02
1.040000000000000000e+02, 8.235900000000000318e+02, 4.500512999999999920e+03, 4.356922999999999774e+03, 4.326154000000000451e+03, 4.248717999999999847e+03, 2.000000000000000000e+00, 0.000000000000000000e+00, 1.000000000000000000e+02
1.050000000000000000e+02, 8.764099999999999682e+02, 4.525127999999999702e+03, 4.363077000000000226e+03, 4.316409999999999854e+03, 4.251795000000000073e+03, 2.000000000000000000e+00, 0.000000000000000000e+00, 1.000000000000000000e+02
1.060000000000000000e+02, 9.010259999999999536e+02, 4.482051000000000386e+03, 4.312820999999999913e+03, 4.298462000000000444e+03, 4.197435999999999694e+03, 2.000000000000000000e+00, 0.000000000000000000e+00, 1.000000000000000000e+02
1.070000000000000000e+02, 1.004615000000000009e+03, 4.494359000000000378e+03, 4.318974000000000160e+03, 4.291282000000000153e+03, 4.211282000000000153e+03, 2.000000000000000000e+00, 0.000000000000000000e+00, 1.000000000000000000e+02
1.080000000000000000e+02, 1.086666999999999916e+03, 4.484103000000000065e+03, 4.297435999999999694e+03, 4.270769000000000233e+03, 4.203077000000000226e+03, 2.000000000000000000e+00, 0.000000000000000000e+00, 1.000000000000000000e+02
1.090000000000000000e+02, 1.044103000000000065e+03, 4.473845999999999549e+03, 4.291795000000000073e+03, 4.263590000000000146e+03, 4.188717999999999847e+03, 0.000000000000000000e+00, 1.000000000000000000e+00, 1.000000000000000000e+02
1.100000000000000000e+02, 1.235384999999999991e+03, 4.484103000000000065e+03, 4.315385000000000218e+03, 4.275385000000000218e+03, 4.195385000000000218e+03, 0.000000000000000000e+00, 1.000000000000000000e+00, 1.000000000000000000e+02
