COUNTER, AF3, T7, Pz, T8, AF4, MARKERS['YES','NO'], TICK, ContactQuality
6.000000000000000000e+01, 4.924614999999999782e+03, 4.262564000000000306e+03, 4.137948999999999614e+03, 4.213845999999999549e+03, 4.881025999999999840e+03, 0.000000000000000000e+00, 0.000000000000000000e+00, 1.000000000000000000e+02
6.100000000000000000e+01, 4.916922999999999774e+03, 4.258462000000000444e+03, 4.116922999999999774e+03, 4.203077000000000226e+03, 4.878462000000000444e+03, 0.000000000000000000e+00, 0.000000000000000000e+00, 1.000000000000000000e+02
6.200000000000000000e+01, 4.903590000000000146e+03, 4.264614999999999782e+03, 4.113332999999999629e+03, 4.186154000000000451e+03, 4.870256000000000313e+03, 0.000000000000000000e+00, 0.000000000000000000e+00, 1.000000000000000000e+02
6.300000000000000000e+01, 4.886667000000000371e+03, 4.270769000000000233e+03, 4.126154000000000451e+03, 4.189743999999999687e+03, 4.862051000000000386e+03, 0.000000000000000000e+00, 0.000000000000000000e+00, 1.000000000000000000e+02
6.400000000000000000e+01, 4.877435999999999694e+03, 4.264614999999999782e+03, 4.136409999999999854e+03, 4.202051000000000386e+03, 4.855385000000000218e+03, 0.000000000000000000e+00, 0.000000000000000000e+00, 1.000000000000000000e+02
6.500000000000000000e+01, 4.885127999999999702e+03, 4.268717999999999847e+03, 4.147179000000000087e+03, 4.194872000000000298e+03, 4.860512999999999920e+03, 0.000000000000000000e+00, 0.000000000000000000e+00, 1.000000000000000000e+02
6.600000000000000000e+01, 4.903077000000000226e+03, 4.281025999999999840e+03, 4.155896999999999935e+03, 4.179487000000000080e+03, 4.878462000000000444e+03, 0.000000000000000000e+00, 0.000000000000000000e+00, 1.000000000000000000e+02
6.700000000000000000e+01, 4.925127999999999702e+03, 4.274872000000000298e+03, 4.149743999999999687e+03, 4.178462000000000444e+03, 4.901537999999999556e+03, 0.000000000000000000e+00, 0.000000000000000000e+00, 1.000000000000000000e+02
6.800000000000000000e+01, 4.948204999999999927e+03, 4.272820999999999913e+03, 4.141025999999999840e+03, 4.183590000000000146e+03, 4.920512999999999920e+03, 0.000000000000000000e+00, 0.000000000000000000e+00, 1.000000000000000000e+02
6.900000000000000000e+01, 4.954872000000000298e+03, 4.283077000000000226e+03, 4.140512999999999920e+03, 4.192820999999999913e+03, 4.934359000000000378e+03, 0.000000000000000000e+00, 0.000000000000000000e+00, 1.000000000000000000e+02
7.000000000000000000e+01, 4.948204999999999927e+03, 4.268717999999999847e+03, 4.134359000000000378e+03, 4.202564000000000306e+03, 4.946154000000000451e+03, 0.000000000000000000e+00, 0.000000000000000000e+00, 1.000000000000000000e+02
7.100000000000000000e+01, 4.949743999999999687e+03, 4.244103000000000065e+03, 4.125127999999999702e+03, 4.200000000000000000e+03, 4.955385000000000218e+03, 0.000000000000000000e+00, 0.000000000000000000e+00, 1.000000000000000000e+02
7.200000000000000000e+01, 4.949743999999999687e+03, 4.248204999999999927e+03, 4.115385000000000218e+03, 4.191282000000000153e+03, 4.952307999999999993e+03, 0.000000000000000000e+00, 0.000000000000000000e+00, 1.000000000000000000e+02
7.300000000000000000e+01, 4.945640999999999622e+03, 4.266667000000000371e+03, 4.111282000000000153e+03, 4.186667000000000371e+03, 4.943077000000000226e+03, 0.000000000000000000e+00, 0.000000000000000000e+00, 1.000000000000000000e+02
7.400000000000000000e+01, 4.948717999999999847e+03, 4.262564000000000306e+03, 4.118462000000000444e+03, 4.181025999999999840e+03, 4.937948999999999614e+03, 0.000000000000000000e+00, 0.000000000000000000e+00, 1.000000000000000000e+02
7.500000000000000000e+01, 4.952820999999999913e+03, 4.258462000000000444e+03, 4.126154000000000451e+03, 4.176409999999999854e+03, 4.934359000000000378e+03, 0.000000000000000000e+00, 0.000000000000000000e+00, 1.000000000000000000e+02
7.600000000000000000e+01, 4.956922999999999774e+03, 4.270769000000000233e+03, 4.132307999999999993e+03, 4.180512999999999920e+03, 4.937948999999999614e+03, 0.000000000000000000e+00, 0.000000000000000000e+00, 1.000000000000000000e+02
7.700000000000000000e+01, 4.960000000000000000e+03, 4.283077000000000226e+03, 4.145127999999999702e+03, 4.185127999999999702e+03, 4.945127999999999702e+03, 0.000000000000000000e+00, 0.000000000000000000e+00, 1.000000000000000000e+02
7.800000000000000000e+01, 4.944103000000000065e+03, 4.281025999999999840e+03, 4.143590000000000146e+03, 4.175896999999999935e+03, 4.931282000000000153e+03, 0.000000000000000000e+00, 0.000000000000000000e+00, 1.000000000000000000e+02
7.900000000000000000e+01, 4.916409999999999854e+03, 4.281025999999999840e+03, 4.124103000000000065e+03, 4.156922999999999774e+03, 4.908204999999999927e+03, 0.000000000000000000e+00, 0.000000000000000000e+00, 1.000000000000000000e+02
8.000000000000000000e+01, 4.919487000000000080e+03, 4.283077000000000226e+03, 4.122564000000000306e+03, 4.156409999999999854e+03, 4.918974000000000160e+03, 0.000000000000000000e+00, 0.000000000000000000e+00, 1.000000000000000000e+02
8.100000000000000000e+01, 4.944614999999999782e+03, 4.291282000000000153e+03, 4.135896999999999935e+03, 4.177948999999999614e+03, 4.947692000000000007e+03, 0.000000000000000000e+00, 0.000000000000000000e+00, 1.000000000000000000e+02
8.200000000000000000e+01, 4.953332999999999629e+03, 4.297435999999999694e+03, 4.137435999999999694e+03, 4.190256000000000313e+03, 4.954359000000000378e+03, 0.000000000000000000e+00, 0.000000000000000000e+00, 1.000000000000000000e+02
8.300000000000000000e+01, 4.949743999999999687e+03, 4.297435999999999694e+03, 4.135896999999999935e+03, 4.187179000000000087e+03, 4.959487000000000080e+03, 0.000000000000000000e+00, 0.000000000000000000e+00, 1.000000000000000000e+02
8.400000000000000000e+01, 4.952307999999999993e+03, 4.293332999999999629e+03, 4.135896999999999935e+03, 4.183077000000000226e+03, 4.973332999999999629e+03, 0.000000000000000000e+00, 0.000000000000000000e+00, 1.000000000000000000e+02
8.500000000000000000e+01, 4.956409999999999854e+03, 4.293332999999999629e+03, 4.138974000000000160e+03, 4.182564000000000306e+03, 4.978974000000000160e+03, 0.000000000000000000e+00, 0.000000000000000000e+00, 1.000000000000000000e+02
8.600000000000000000e+01, 4.965127999999999702e+03, 4.293332999999999629e+03, 4.146154000000000451e+03, 4.190256000000000313e+03, 4.982051000000000386e+03, 0.000000000000000000e+00, 0.000000000000000000e+00, 1.000000000000000000e+02
8.700000000000000000e+01, 4.977435999999999694e+03, 4.291282000000000153e+03, 4.148717999999999847e+03, 4.200000000000000000e+03, 4.993332999999999629e+03, 0.000000000000000000e+00, 0.000000000000000000e+00, 1.000000000000000000e+02
8.800000000000000000e+01, 4.976922999999999774e+03, 4.283077000000000226e+03, 4.142051000000000386e+03, 4.195896999999999935e+03, 4.996922999999999774e+03, 0.000000000000000000e+00, 0.000000000000000000e+00, 1.000000000000000000e+02
8.900000000000000000e+01, 4.960000000000000000e+03, 4.272820999999999913e+03, 4.139487000000000080e+03, 4.188204999999999927e+03, 4.985127999999999702e+03, 0.000000000000000000e+00, 0.000000000000000000e+00, 1.000000000000000000e+02
9.000000000000000000e+01, 4.952820999999999913e+03, 4.281025999999999840e+03, 4.143590000000000146e+03, 4.190256000000000313e+03, 4.982051000000000386e+03, 0.000000000000000000e+00, 0.000000000000000000e+00, 1.000000000000000000e+02
9.100000000000000000e+01, 4.961025999999999840e+03, 4.293332999999999629e+03, 4.140000000000000000e+03, 4.182564000000000306e+03, 4.990769000000000233e+03, 0.000000000000000000e+00, 0.000000000000000000e+00, 1.000000000000000000e+02
9.200000000000000000e+01, 4.961537999999999556e+03, 4.295385000000000218e+03, 4.130256000000000313e+03, 4.173332999999999629e+03, 4.990256000000000313e+03, 0.000000000000000000e+00, 0.000000000000000000e+00, 1.000000000000000000e+02
9.300000000000000000e+01, 4.947179000000000087e+03, 4.293332999999999629e+03, 4.117948999999999614e+03, 4.167692000000000007e+03, 4.977948999999999614e+03, 0.000000000000000000e+00, 0.000000000000000000e+00, 1.000000000000000000e+02
9.400000000000000000e+01, 4.932307999999999993e+03, 4.283077000000000226e+03, 4.097948999999999614e+03, 4.147179000000000087e+03, 4.972307999999999993e+03, 0.000000000000000000e+00, 0.000000000000000000e+00, 1.000000000000000000e+02
9.500000000000000000e+01, 4.933845999999999549e+03, 4.276922999999999774e+03, 4.095896999999999935e+03, 4.137948999999999614e+03, 4.984614999999999782e+03, 0.000000000000000000e+00, 0.000000000000000000e+00, 1.000000000000000000e+02
9.600000000000000000e+01, 4.941025999999999840e+03, 4.278974000000000160e+03, 4.112820999999999913e+03, 4.158462000000000444e+03, 4.998462000000000444e+03, 0.000000000000000000e+00, 0.000000000000000000e+00, 1.000000000000000000e+02
9.700000000000000000e+01, 4.943590000000000146e+03, 4.283077000000000226e+03, 4.123077000000000226e+03, 4.174359000000000378e+03, 5.000000000000000000e+03, 0.000000000000000000e+00, 0.000000000000000000e+00, 1.000000000000000000e+02
9.800000000000000000e+01, 4.947179000000000087e+03, 4.278974000000000160e+03, 4.128717999999999847e+03, 4.170256000000000313e+03, 5.002051000000000386e+03, 0.000000000000000000e+00, 0.000000000000000000e+00, 1.000000000000000000e+02
9.900000000000000000e+01, 4.949230999999999767e+03, 4.278974000000000160e+03, 4.132307999999999993e+03, 4.169230999999999767e+03, 5.008717999999999847e+03, 0.000000000000000000e+00, 0.000000000000000000e+00, 1.000000000000000000e+02
1.000000000000000000e+02, 4.935896999999999935e+03, 4.278974000000000160e+03, 4.120000000000000000e+03, 4.168204999999999927e+03, 5.002051000000000386e+03, 0.000000000000000000e+00, 0.000000000000000000e+00, 1.000000000000000000e+02
1.010000000000000000e+02, 4.928204999999999927e+03, 4.283077000000000226e+03, 4.114359000000000378e+03, 4.171282000000000153e+03, 4.996409999999999854e+03, 0.000000000000000000e+00, 0.000000000000000000e+00, 1.000000000000000000e+02
1.020000000000000000e+02, 4.937435999999999694e+03, 4.289230999999999767e+03, 4.126154000000000451e+03, 4.183077000000000226e+03, 5.007692000000000007e+03, 0.000000000000000000e+00, 0.000000000000000000e+00, 1.000000000000000000e+02
1.030000000000000000e+02, 4.928204999999999927e+03, 4.285127999999999702e+03, 4.131282000000000153e+03, 4.178974000000000160e+03, 5.008717999999999847e+03, 0.000000000000000000e+00, 0.000000000000000000e+00, 1.000000000000000000e+02
1.040000000000000000e+02, 4.907692000000000007e+03, 4.274872000000000298e+03, 4.137948999999999614e+03, 4.170769000000000233e+03, 5.001025999999999840e+03, 0.000000000000000000e+00, 0.000000000000000000e+00, 1.000000000000000000e+02
1.050000000000000000e+02, 4.911282000000000153e+03, 4.283077000000000226e+03, 4.152307999999999993e+03, 4.182564000000000306e+03, 5.008204999999999927e+03, 0.000000000000000000e+00, 0.000000000000000000e+00, 1.000000000000000000e+02
1.060000000000000000e+02, 4.921025999999999840e+03, 4.297435999999999694e+03, 4.166154000000000451e+03, 4.193332999999999629e+03, 5.021025999999999840e+03, 0.000000000000000000e+00, 0.000000000000000000e+00, 1.000000000000000000e+02
1.070000000000000000e+02, 4.917435999999999694e+03, 4.299487000000000080e+03, 4.179487000000000080e+03, 4.188717999999999847e+03, 5.024614999999999782e+03, 0.000000000000000000e+00, 0.000000000000000000e+00, 1.000000000000000000e+02
1.080000000000000000e+02, 4.919487000000000080e+03, 4.307692000000000007e+03, 4.182564000000000306e+03, 4.185640999999999622e+03, 5.023077000000000226e+03, 0.000000000000000000e+00, 0.000000000000000000e+00, 1.000000000000000000e+02
1.090000000000000000e+02, 4.926667000000000371e+03, 4.324103000000000065e+03, 4.173332999999999629e+03, 4.186154000000000451e+03, 5.023590000000000146e+03, 0.000000000000000000e+00, 0.000000000000000000e+00, 1.000000000000000000e+02
1.100000000000000000e+02, 4.922051000000000386e+03, 4.332307999999999993e+03, 4.167179000000000087e+03, 4.186667000000000371e+03, 5.026154000000000451e+03, 0.000000000000000000e+00, 0.000000000000000000e+00, 1.000000000000000000e+02
1.110000000000000000e+02, 4.909743999999999687e+03, 4.326154000000000451e+03, 4.156922999999999774e+03, 4.186667000000000371e+03, 5.013332999999999629e+03, 0.000000000000000000e+00, 0.000000000000000000e+00, 1.000000000000000000e+02
1.120000000000000000e+02, 4.899487000000000080e+03, 4.317948999999999614e+03, 4.140000000000000000e+03, 4.182564000000000306e+03, 4.994872000000000298e+03, 0.000000000000000000e+00, 0.000000000000000000e+00, 1.000000000000000000e+02
1.130000000000000000e+02, 4.901025999999999840e+03, 4.311795000000000073e+03, 4.137435999999999694e+03, 4.182564000000000306e+03, 5.003590000000000146e+03, 0.000000000000000000e+00, 0.000000000000000000e+00, 1.000000000000000000e+02
1.140000000000000000e+02, 4.896409999999999854e+03, 4.305640999999999622e+03, 4.136922999999999774e+03, 4.182051000000000386e+03, 5.011795000000000073e+03, 0.000000000000000000e+00, 0.000000000000000000e+00, 1.000000000000000000e+02
1.150000000000000000e+02, 4.889743999999999687e+03, 4.299487000000000080e+03, 4.137435999999999694e+03, 4.180512999999999920e+03, 5.013845999999999549e+03, 0.000000000000000000e+00, 0.000000000000000000e+00, 1.000000000000000000e+02
1.160000000000000000e+02, 4.911795000000000073e+03, 4.305640999999999622e+03, 4.149230999999999767e+03, 4.193845999999999549e+03, 5.036922999999999774e+03, 0.000000000000000000e+00, 0.000000000000000000e+00, 1.000000000000000000e+02
1.170000000000000000e+02, 4.937948999999999614e+03, 4.315896999999999935e+03, 4.154872000000000298e+03, 4.203590000000000146e+03, 5.057435999999999694e+03, 0.000000000000000000e+00, 0.000000000000000000e+00, 1.000000000000000000e+02
1.180000000000000000e+02, 4.942564000000000306e+03, 4.320000000000000000e+03, 4.153845999999999549e+03, 4.189743999999999687e+03, 5.061025999999999840e+03, 0.000000000000000000e+00, 0.000000000000000000e+00, 1.000000000000000000e+02
1.190000000000000000e+02, 4.945640999999999622e+03, 4.320000000000000000e+03, 4.155896999999999935e+03, 4.177435999999999694e+03, 5.072820999999999913e+03, 0.000000000000000000e+00, 0.000000000000000000e+00, 1.000000000000000000e+02
1.200000000000000000e+02, 4.947692000000000007e+03, 4.326154000000000451e+03, 4.156922999999999774e+03, 4.191282000000000153e+03, 5.079487000000000080e+03, 0.000000000000000000e+00, 0.000000000000000000e+00, 1.000000000000000000e+02
1.210000000000000000e+02, 4.928204999999999927e+03, 4.330256000000000313e+03, 4.153845999999999549e+03, 4.200512999999999920e+03, 5.063590000000000146e+03, 0.000000000000000000e+00, 0.000000000000000000e+00, 1.000000000000000000e+02
1.220000000000000000e+02, 4.907692000000000007e+03, 4.328204999999999927e+03, 4.153332999999999629e+03, 4.188204999999999927e+03, 5.051795000000000073e+03, 0.000000000000000000e+00, 0.000000000000000000e+00, 1.000000000000000000e+02
1.230000000000000000e+02, 4.901537999999999556e+03, 4.324103000000000065e+03, 4.154359000000000378e+03, 4.184103000000000065e+03, 5.049230999999999767e+03, 0.000000000000000000e+00, 0.000000000000000000e+00, 1.000000000000000000e+02
1.240000000000000000e+02, 4.893332999999999629e+03, 4.322051000000000386e+03, 4.151795000000000073e+03, 4.188717999999999847e+03, 5.046667000000000371e+03, 0.000000000000000000e+00, 0.000000000000000000e+00, 1.000000000000000000e+02
1.250000000000000000e+02, 4.889743999999999687e+03, 4.322051000000000386e+03, 4.148717999999999847e+03, 4.184614999999999782e+03, 5.048717999999999847e+03, 0.000000000000000000e+00, 0.000000000000000000e+00, 1.000000000000000000e+02
1.260000000000000000e+02, 4.899487000000000080e+03, 4.322051000000000386e+03, 4.153845999999999549e+03, 4.190769000000000233e+03, 5.057435999999999694e+03, 0.000000000000000000e+00, 0.000000000000000000e+00, 1.000000000000000000e+02
1.270000000000000000e+02, 4.905640999999999622e+03, 4.324103000000000065e+03, 4.166154000000000451e+03, 4.204103000000000065e+03, 5.062051000000000386e+03, 0.000000000000000000e+00, 0.000000000000000000e+00, 1.000000000000000000e+02
0.000000000000000000e+00, 4.897948999999999614e+03, 4.328204999999999927e+03, 4.174359000000000378e+03, 4.193845999999999549e+03, 5.052820999999999913e+03, 0.000000000000000000e+00, 0.000000000000000000e+00, 1.000000000000000000e+02
1.000000000000000000e+00, 4.889743999999999687e+03, 4.328204999999999927e+03, 4.172820999999999913e+03, 4.182564000000000306e+03, 5.041537999999999556e+03, 0.000000000000000000e+00, 0.000000000000000000e+00, 1.000000000000000000e+02
2.000000000000000000e+00, 4.876922999999999774e+03, 4.324103000000000065e+03, 4.170769000000000233e+03, 4.185640999999999622e+03, 5.038462000000000444e+03, 0.000000000000000000e+00, 0.000000000000000000e+00, 1.000000000000000000e+02
3.000000000000000000e+00, 4.863590000000000146e+03, 4.317948999999999614e+03, 4.166667000000000371e+03, 4.182051000000000386e+03, 5.041025999999999840e+03, 0.000000000000000000e+00, 0.000000000000000000e+00, 1.000000000000000000e+02
4.000000000000000000e+00, 4.861025999999999840e+03, 4.317948999999999614e+03, 4.160512999999999920e+03, 4.177948999999999614e+03, 5.040000000000000000e+03, 0.000000000000000000e+00, 0.000000000000000000e+00, 1.000000000000000000e+02
5.000000000000000000e+00, 4.865127999999999702e+03, 4.324103000000000065e+03, 4.165640999999999622e+03, 4.183077000000000226e+03, 5.036922999999999774e+03, 0.000000000000000000e+00, 0.000000000000000000e+00, 1.000000000000000000e+02
6.000000000000000000e+00, 4.866667000000000371e+03, 4.332307999999999993e+03, 4.170769000000000233e+03, 4.189230999999999767e+03, 5.031282000000000153e+03, 0.000000000000000000e+00, 0.000000000000000000e+00, 1.000000000000000000e+02
7.000000000000000000e+00, 4.861537999999999556e+03, 4.328204999999999927e+03, 4.157435999999999694e+03, 4.192307999999999993e+03, 5.025127999999999702e+03, 0.000000000000000000e+00, 0.000000000000000000e+00, 1.000000000000000000e+02
8.000000000000000000e+00, 4.850769000000000233e+03, 4.320000000000000000e+03, 4.140000000000000000e+03, 4.194872000000000298e+03, 5.025127999999999702e+03, 0.000000000000000000e+00, 0.000000000000000000e+00, 1.000000000000000000e+02
9.000000000000000000e+00, 4.838462000000000444e+03, 4.311795000000000073e+03, 4.130256000000000313e+03, 4.182564000000000306e+03, 5.022564000000000306e+03, 0.000000000000000000e+00, 0.000000000000000000e+00, 1.000000000000000000e+02
1.000000000000000000e+01, 4.834872000000000298e+03, 4.305640999999999622e+03, 4.130256000000000313e+03, 4.167692000000000007e+03, 5.020000000000000000e+03, 0.000000000000000000e+00, 0.000000000000000000e+00, 1.000000000000000000e+02
1.100000000000000000e+01, 4.842051000000000386e+03, 4.315896999999999935e+03, 4.141025999999999840e+03, 4.175385000000000218e+03, 5.025640999999999622e+03, 0.000000000000000000e+00, 0.000000000000000000e+00, 1.000000000000000000e+02
1.200000000000000000e+01, 4.846154000000000451e+03, 4.336409999999999854e+03, 4.153845999999999549e+03, 4.187179000000000087e+03, 5.026154000000000451e+03, 0.000000000000000000e+00, 0.000000000000000000e+00, 1.000000000000000000e+02
1.300000000000000000e+01, 4.841537999999999556e+03, 4.336409999999999854e+03, 4.160512999999999920e+03, 4.187692000000000007e+03, 5.018462000000000444e+03, 0.000000000000000000e+00, 0.000000000000000000e+00, 1.000000000000000000e+02
1.400000000000000000e+01, 4.845127999999999702e+03, 4.330256000000000313e+03, 4.164614999999999782e+03, 4.190256000000000313e+03, 5.030256000000000313e+03, 0.000000000000000000e+00, 0.000000000000000000e+00, 1.000000000000000000e+02
1.500000000000000000e+01, 4.849743999999999687e+03, 4.336409999999999854e+03, 4.163077000000000226e+03, 4.193332999999999629e+03, 5.044614999999999782e+03, 0.000000000000000000e+00, 0.000000000000000000e+00, 1.000000000000000000e+02
1.600000000000000000e+01, 4.834359000000000378e+03, 4.334359000000000378e+03, 4.154872000000000298e+03, 4.183590000000000146e+03, 5.024103000000000065e+03, 0.000000000000000000e+00, 0.000000000000000000e+00, 1.000000000000000000e+02
1.700000000000000000e+01, 4.821537999999999556e+03, 4.326154000000000451e+03, 4.151282000000000153e+03, 4.180000000000000000e+03, 5.007179000000000087e+03, 0.000000000000000000e+00, 0.000000000000000000e+00, 1.000000000000000000e+02
1.800000000000000000e+01, 4.821537999999999556e+03, 4.322051000000000386e+03, 4.145127999999999702e+03, 4.190769000000000233e+03, 5.012820999999999913e+03, 0.000000000000000000e+00, 0.000000000000000000e+00, 1.000000000000000000e+02
1.900000000000000000e+01, 4.811795000000000073e+03, 4.311795000000000073e+03, 4.135385000000000218e+03, 4.186667000000000371e+03, 5.008204999999999927e+03, 0.000000000000000000e+00, 0.000000000000000000e+00, 1.000000000000000000e+02
2.000000000000000000e+01, 4.796922999999999774e+03, 4.309743999999999687e+03, 4.142051000000000386e+03, 4.174359000000000378e+03, 4.996922999999999774e+03, 0.000000000000000000e+00, 0.000000000000000000e+00, 1.000000000000000000e+02
2.100000000000000000e+01, 4.796922999999999774e+03, 4.320000000000000000e+03, 4.153845999999999549e+03, 4.176922999999999774e+03, 4.997948999999999614e+03, 0.000000000000000000e+00, 0.000000000000000000e+00, 1.000000000000000000e+02
2.200000000000000000e+01, 4.795385000000000218e+03, 4.317948999999999614e+03, 4.148204999999999927e+03, 4.186154000000000451e+03, 4.993845999999999549e+03, 0.000000000000000000e+00, 0.000000000000000000e+00, 1.000000000000000000e+02
2.300000000000000000e+01, 4.788204999999999927e+03, 4.317948999999999614e+03, 4.144614999999999782e+03, 4.189230999999999767e+03, 4.992307999999999993e+03, 0.000000000000000000e+00, 0.000000000000000000e+00, 1.000000000000000000e+02
2.400000000000000000e+01, 4.786154000000000451e+03, 4.320000000000000000e+03, 4.149230999999999767e+03, 4.186667000000000371e+03, 4.995896999999999935e+03, 0.000000000000000000e+00, 0.000000000000000000e+00, 1.000000000000000000e+02
2.500000000000000000e+01, 4.775896999999999935e+03, 4.311795000000000073e+03, 4.141025999999999840e+03, 4.187179000000000087e+03, 4.980512999999999920e+03, 0.000000000000000000e+00, 0.000000000000000000e+00, 1.000000000000000000e+02
2.600000000000000000e+01, 4.764614999999999782e+03, 4.305640999999999622e+03, 4.133845999999999549e+03, 4.188204999999999927e+03, 4.969743999999999687e+03, 0.000000000000000000e+00, 0.000000000000000000e+00, 1.000000000000000000e+02
2.700000000000000000e+01, 4.762051000000000386e+03, 4.309743999999999687e+03, 4.142051000000000386e+03, 4.184614999999999782e+03, 4.976409999999999854e+03, 0.000000000000000000e+00, 0.000000000000000000e+00, 1.000000000000000000e+02
2.800000000000000000e+01, 4.755385000000000218e+03, 4.313845999999999549e+03, 4.147179000000000087e+03, 4.183590000000000146e+03, 4.974872000000000298e+03, 0.000000000000000000e+00, 0.000000000000000000e+00, 1.000000000000000000e+02
2.900000000000000000e+01, 4.746154000000000451e+03, 4.311795000000000073e+03, 4.144614999999999782e+03, 4.189230999999999767e+03, 4.968717999999999847e+03, 0.000000000000000000e+00, 0.000000000000000000e+00, 1.000000000000000000e+02
3.000000000000000000e+01, 4.748204999999999927e+03, 4.307692000000000007e+03, 4.145640999999999622e+03, 4.192307999999999993e+03, 4.972820999999999913e+03, 0.000000000000000000e+00, 0.000000000000000000e+00, 1.000000000000000000e+02
3.100000000000000000e+01, 4.753845999999999549e+03, 4.309743999999999687e+03, 4.143590000000000146e+03, 4.188204999999999927e+03, 4.980512999999999920e+03, 0.000000000000000000e+00, 0.000000000000000000e+00, 1.000000000000000000e+02
3.200000000000000000e+01, 4.750769000000000233e+03, 4.303590000000000146e+03, 4.135896999999999935e+03, 4.181025999999999840e+03, 4.977948999999999614e+03, 0.000000000000000000e+00, 0.000000000000000000e+00, 1.000000000000000000e+02
3.300000000000000000e+01, 4.747692000000000007e+03, 4.291282000000000153e+03, 4.138974000000000160e+03, 4.177435999999999694e+03, 4.969743999999999687e+03, 0.000000000000000000e+00, 0.000000000000000000e+00, 1.000000000000000000e+02
3.400000000000000000e+01, 4.750256000000000313e+03, 4.301537999999999556e+03, 4.151795000000000073e+03, 4.191282000000000153e+03, 4.975385000000000218e+03, 0.000000000000000000e+00, 0.000000000000000000e+00, 1.000000000000000000e+02
3.500000000000000000e+01, 4.753332999999999629e+03, 4.315896999999999935e+03, 4.153845999999999549e+03, 4.210769000000000233e+03, 4.987692000000000007e+03, 0.000000000000000000e+00, 0.000000000000000000e+00, 1.000000000000000000e+02
3.600000000000000000e+01, 4.746667000000000371e+03, 4.303590000000000146e+03, 4.144614999999999782e+03, 4.209743999999999687e+03, 4.981025999999999840e+03, 0.000000000000000000e+00, 0.000000000000000000e+00, 1.000000000000000000e+02
3.700000000000000000e+01, 4.734872000000000298e+03, 4.299487000000000080e+03, 4.137435999999999694e+03, 4.195896999999999935e+03, 4.965127999999999702e+03, 0.000000000000000000e+00, 0.000000000000000000e+00, 1.000000000000000000e+02
3.800000000000000000e+01, 4.734359000000000378e+03, 4.317948999999999614e+03, 4.143590000000000146e+03, 4.192820999999999913e+03, 4.966154000000000451e+03, 0.000000000000000000e+00, 0.000000000000000000e+00, 1.000000000000000000e+02
3.900000000000000000e+01, 4.736922999999999774e+03, 4.320000000000000000e+03, 4.148717999999999847e+03, 4.200000000000000000e+03, 4.968717999999999847e+03, 0.000000000000000000e+00, 0.000000000000000000e+00, 1.000000000000000000e+02
4.000000000000000000e+01, 4.724614999999999782e+03, 4.307692000000000007e+03, 4.143077000000000226e+03, 4.194872000000000298e+03, 4.949743999999999687e+03, 0.000000000000000000e+00, 0.000000000000000000e+00, 1.000000000000000000e+02
4.100000000000000000e+01, 4.713332999999999629e+03, 4.309743999999999687e+03, 4.136922999999999774e+03, 4.184103000000000065e+03, 4.932307999999999993e+03, 0.000000000000000000e+00, 0.000000000000000000e+00, 1.000000000000000000e+02
4.200000000000000000e+01, 4.724614999999999782e+03, 4.313845999999999549e+03, 4.147692000000000007e+03, 4.194359000000000378e+03, 4.942564000000000306e+03, 0.000000000000000000e+00, 0.000000000000000000e+00, 1.000000000000000000e+02
4.300000000000000000e+01, 4.735385000000000218e+03, 4.311795000000000073e+03, 4.157948999999999614e+03, 4.207179000000000087e+03, 4.959487000000000080e+03, 0.000000000000000000e+00, 0.000000000000000000e+00, 1.000000000000000000e+02
4.400000000000000000e+01, 4.726667000000000371e+03, 4.305640999999999622e+03, 4.145127999999999702e+03, 4.190256000000000313e+03, 4.960000000000000000e+03, 0.000000000000000000e+00, 0.000000000000000000e+00, 1.000000000000000000e+02
4.500000000000000000e+01, 4.723077000000000226e+03, 4.305640999999999622e+03, 4.135385000000000218e+03, 4.182564000000000306e+03, 4.957435999999999694e+03, 0.000000000000000000e+00, 0.000000000000000000e+00, 1.000000000000000000e+02
4.600000000000000000e+01, 4.727692000000000007e+03, 4.301537999999999556e+03, 4.141025999999999840e+03, 4.200512999999999920e+03, 4.958974000000000160e+03, 0.000000000000000000e+00, 0.000000000000000000e+00, 1.000000000000000000e+02
4.700000000000000000e+01, 4.724614999999999782e+03, 4.295385000000000218e+03, 4.140000000000000000e+03, 4.197435999999999694e+03, 4.958462000000000444e+03, 0.000000000000000000e+00, 0.000000000000000000e+00, 1.000000000000000000e+02
4.800000000000000000e+01, 4.718462000000000444e+03, 4.297435999999999694e+03, 4.138974000000000160e+03, 4.186154000000000451e+03, 4.954872000000000298e+03, 0.000000000000000000e+00, 0.000000000000000000e+00, 1.000000000000000000e+02
4.900000000000000000e+01, 4.710769000000000233e+03, 4.305640999999999622e+03, 4.148204999999999927e+03, 4.200512999999999920e+03, 4.947179000000000087e+03, 0.000000000000000000e+00, 0.000000000000000000e+00, 1.000000000000000000e+02
5.000000000000000000e+01, 4.704614999999999782e+03, 4.305640999999999622e+03, 4.155896999999999935e+03, 4.220512999999999920e+03, 4.947692000000000007e+03, 0.000000000000000000e+00, 0.000000000000000000e+00, 1.000000000000000000e+02
5.100000000000000000e+01, 4.701025999999999840e+03, 4.293332999999999629e+03, 4.154359000000000378e+03, 4.218974000000000160e+03, 4.947179000000000087e+03, 0.000000000000000000e+00, 0.000000000000000000e+00, 1.000000000000000000e+02
5.200000000000000000e+01, 4.684103000000000065e+03, 4.281025999999999840e+03, 4.153332999999999629e+03, 4.213332999999999629e+03, 4.930769000000000233e+03, 0.000000000000000000e+00, 0.000000000000000000e+00, 1.000000000000000000e+02
5.300000000000000000e+01, 4.663590000000000146e+03, 4.278974000000000160e+03, 4.156409999999999854e+03, 4.226154000000000451e+03, 4.919487000000000080e+03, 0.000000000000000000e+00, 0.000000000000000000e+00, 1.000000000000000000e+02
5.400000000000000000e+01, 4.656922999999999774e+03, 4.276922999999999774e+03, 4.153332999999999629e+03, 4.235385000000000218e+03, 4.917948999999999614e+03, 0.000000000000000000e+00, 0.000000000000000000e+00, 1.000000000000000000e+02
5.500000000000000000e+01, 4.640000000000000000e+03, 4.264614999999999782e+03, 4.138462000000000444e+03, 4.217435999999999694e+03, 4.898462000000000444e+03, 0.000000000000000000e+00, 0.000000000000000000e+00, 1.000000000000000000e+02
5.600000000000000000e+01, 4.610769000000000233e+03, 4.252307999999999993e+03, 4.124614999999999782e+03, 4.191795000000000073e+03, 4.874359000000000378e+03, 0.000000000000000000e+00, 0.000000000000000000e+00, 1.000000000000000000e+02
5.700000000000000000e+01, 4.606154000000000451e+03, 4.258462000000000444e+03, 4.123077000000000226e+03, 4.185127999999999702e+03, 4.874872000000000298e+03, 0.000000000000000000e+00, 0.000000000000000000e+00, 1.000000000000000000e+02
5.800000000000000000e+01, 4.615896999999999935e+03, 4.266667000000000371e+03, 4.124614999999999782e+03, 4.188717999999999847e+03, 4.877435999999999694e+03, 0.000000000000000000e+00, 0.000000000000000000e+00, 1.000000000000000000e+02
5.900000000000000000e+01, 4.612820999999999913e+03, 4.262564000000000306e+03, 4.117948999999999614e+03, 4.183590000000000146e+03, 4.865640999999999622e+03, 0.000000000000000000e+00, 0.000000000000000000e+00, 1.000000000000000000e+02
6.000000000000000000e+01, 4.606154000000000451e+03, 4.270769000000000233e+03, 4.114359000000000378e+03, 4.182051000000000386e+03, 4.856409999999999854e+03, 0.000000000000000000e+00, 0.000000000000000000e+00, 1.000000000000000000e+02
6.100000000000000000e+01, 4.612307999999999993e+03, 4.287179000000000087e+03, 4.129230999999999767e+03, 4.191795000000000073e+03, 4.862564000000000306e+03, 0.000000000000000000e+00, 0.000000000000000000e+00, 1.000000000000000000e+02
6.200000000000000000e+01, 4.612307999999999993e+03, 4.293332999999999629e+03, 4.142564000000000306e+03, 4.192307999999999993e+03, 4.862051000000000386e+03, 0.000000000000000000e+00, 0.000000000000000000e+00, 1.000000000000000000e+02
6.300000000000000000e+01, 4.598974000000000160e+03, 4.295385000000000218e+03, 4.138462000000000444e+03, 4.184103000000000065e+03, 4.843590000000000146e+03, 0.000000000000000000e+00, 0.000000000000000000e+00, 1.000000000000000000e+02
6.400000000000000000e+01, 4.597435999999999694e+03, 4.293332999999999629e+03, 4.133332999999999629e+03, 4.184614999999999782e+03, 4.838462000000000444e+03, 0.000000000000000000e+00, 0.000000000000000000e+00, 1.000000000000000000e+02
6.500000000000000000e+01, 4.608204999999999927e+03, 4.289230999999999767e+03, 4.139487000000000080e+03, 4.186667000000000371e+03, 4.852820999999999913e+03, 0.000000000000000000e+00, 0.000000000000000000e+00, 1.000000000000000000e+02
6.600000000000000000e+01, 4.608204999999999927e+03, 4.289230999999999767e+03, 4.146667000000000371e+03, 4.183590000000000146e+03, 4.860512999999999920e+03, 0.000000000000000000e+00, 0.000000000000000000e+00, 1.000000000000000000e+02
6.700000000000000000e+01, 4.603077000000000226e+03, 4.293332999999999629e+03, 4.139487000000000080e+03, 4.186154000000000451e+03, 4.860000000000000000e+03, 0.000000000000000000e+00, 0.000000000000000000e+00, 1.000000000000000000e+02
6.800000000000000000e+01, 4.604614999999999782e+03, 4.295385000000000218e+03, 4.120512999999999920e+03, 4.189743999999999687e+03, 4.856922999999999774e+03, 0.000000000000000000e+00, 0.000000000000000000e+00, 1.000000000000000000e+02
6.900000000000000000e+01, 4.604103000000000065e+03, 4.295385000000000218e+03, 4.116409999999999854e+03, 4.184614999999999782e+03, 4.850769000000000233e+03, 0.000000000000000000e+00, 0.000000000000000000e+00, 1.000000000000000000e+02
7.000000000000000000e+01, 4.597435999999999694e+03, 4.297435999999999694e+03, 4.124614999999999782e+03, 4.184614999999999782e+03, 4.847179000000000087e+03, 0.000000000000000000e+00, 0.000000000000000000e+00, 1.000000000000000000e+02
7.100000000000000000e+01, 4.592307999999999993e+03, 4.297435999999999694e+03, 4.124614999999999782e+03, 4.195896999999999935e+03, 4.848717999999999847e+03, 0.000000000000000000e+00, 0.000000000000000000e+00, 1.000000000000000000e+02
7.200000000000000000e+01, 4.586154000000000451e+03, 4.295385000000000218e+03, 4.125640999999999622e+03, 4.201025999999999840e+03, 4.845640999999999622e+03, 0.000000000000000000e+00, 0.000000000000000000e+00, 1.000000000000000000e+02
7.300000000000000000e+01, 4.584103000000000065e+03, 4.293332999999999629e+03, 4.135896999999999935e+03, 4.203077000000000226e+03, 4.842564000000000306e+03, 0.000000000000000000e+00, 0.000000000000000000e+00, 1.000000000000000000e+02
7.400000000000000000e+01, 4.592820999999999913e+03, 4.295385000000000218e+03, 4.141537999999999556e+03, 4.218462000000000444e+03, 4.847692000000000007e+03, 0.000000000000000000e+00, 0.000000000000000000e+00, 1.000000000000000000e+02
7.500000000000000000e+01, 4.592307999999999993e+03, 4.295385000000000218e+03, 4.137948999999999614e+03, 4.214359000000000378e+03, 4.843590000000000146e+03, 0.000000000000000000e+00, 0.000000000000000000e+00, 1.000000000000000000e+02
7.600000000000000000e+01, 4.579487000000000080e+03, 4.295385000000000218e+03, 4.134872000000000298e+03, 4.183590000000000146e+03, 4.828717999999999847e+03, 0.000000000000000000e+00, 0.000000000000000000e+00, 1.000000000000000000e+02
7.700000000000000000e+01, 4.581025999999999840e+03, 4.297435999999999694e+03, 4.144614999999999782e+03, 4.185127999999999702e+03, 4.831282000000000153e+03, 0.000000000000000000e+00, 0.000000000000000000e+00, 1.000000000000000000e+02
7.800000000000000000e+01, 4.588717999999999847e+03, 4.301537999999999556e+03, 4.153332999999999629e+03, 4.204614999999999782e+03, 4.836922999999999774e+03, 0.000000000000000000e+00, 0.000000000000000000e+00, 1.000000000000000000e+02
7.900000000000000000e+01, 4.566154000000000451e+03, 4.293332999999999629e+03, 4.139487000000000080e+03, 4.185127999999999702e+03, 4.809743999999999687e+03, 0.000000000000000000e+00, 0.000000000000000000e+00, 1.000000000000000000e+02
8.000000000000000000e+01, 4.534872000000000298e+03, 4.281025999999999840e+03, 4.126154000000000451e+03, 4.156409999999999854e+03, 4.778462000000000444e+03, 0.000000000000000000e+00, 0.000000000000000000e+00, 1.000000000000000000e+02
8.100000000000000000e+01, 4.536409999999999854e+03, 4.283077000000000226e+03, 4.142564000000000306e+03, 4.158974000000000160e+03, 4.785640999999999622e+03, 0.000000000000000000e+00, 0.000000000000000000e+00, 1.000000000000000000e+02
8.200000000000000000e+01, 4.546154000000000451e+03, 4.295385000000000218e+03, 4.158974000000000160e+03, 4.177435999999999694e+03, 4.809743999999999687e+03, 0.000000000000000000e+00, 0.000000000000000000e+00, 1.000000000000000000e+02
8.300000000000000000e+01, 4.540000000000000000e+03, 4.299487000000000080e+03, 4.150256000000000313e+03, 4.187179000000000087e+03, 4.812820999999999913e+03, 0.000000000000000000e+00, 0.000000000000000000e+00, 1.000000000000000000e+02
8.400000000000000000e+01, 4.536922999999999774e+03, 4.295385000000000218e+03, 4.134359000000000378e+03, 4.187179000000000087e+03, 4.801537999999999556e+03, 0.000000000000000000e+00, 0.000000000000000000e+00, 1.000000000000000000e+02
8.500000000000000000e+01, 4.542051000000000386e+03, 4.293332999999999629e+03, 4.127179000000000087e+03, 4.185127999999999702e+03, 4.796922999999999774e+03, 0.000000000000000000e+00, 0.000000000000000000e+00, 1.000000000000000000e+02
8.600000000000000000e+01, 4.540000000000000000e+03, 4.297435999999999694e+03, 4.125127999999999702e+03, 4.189743999999999687e+03, 4.794872000000000298e+03, 0.000000000000000000e+00, 0.000000000000000000e+00, 1.000000000000000000e+02
8.700000000000000000e+01, 4.534872000000000298e+03, 4.303590000000000146e+03, 4.124103000000000065e+03, 4.190256000000000313e+03, 4.788717999999999847e+03, 0.000000000000000000e+00, 0.000000000000000000e+00, 1.000000000000000000e+02
8.800000000000000000e+01, 4.528204999999999927e+03, 4.297435999999999694e+03, 4.120000000000000000e+03, 4.177948999999999614e+03, 4.776409999999999854e+03, 0.000000000000000000e+00, 0.000000000000000000e+00, 1.000000000000000000e+02
8.900000000000000000e+01, 4.521537999999999556e+03, 4.291282000000000153e+03, 4.121025999999999840e+03, 4.168717999999999847e+03, 4.763590000000000146e+03, 0.000000000000000000e+00, 0.000000000000000000e+00, 1.000000000000000000e+02
9.000000000000000000e+01, 4.522051000000000386e+03, 4.295385000000000218e+03, 4.123590000000000146e+03, 4.169743999999999687e+03, 4.756409999999999854e+03, 0.000000000000000000e+00, 0.000000000000000000e+00, 1.000000000000000000e+02
9.100000000000000000e+01, 4.522564000000000306e+03, 4.293332999999999629e+03, 4.114872000000000298e+03, 4.163077000000000226e+03, 4.747692000000000007e+03, 0.000000000000000000e+00, 0.000000000000000000e+00, 1.000000000000000000e+02
9.200000000000000000e+01, 4.520000000000000000e+03, 4.283077000000000226e+03, 4.109743999999999687e+03, 4.155896999999999935e+03, 4.738974000000000160e+03, 0.000000000000000000e+00, 0.000000000000000000e+00, 1.000000000000000000e+02
9.300000000000000000e+01, 4.519487000000000080e+03, 4.285127999999999702e+03, 4.120512999999999920e+03, 4.163590000000000146e+03, 4.733845999999999549e+03, 0.000000000000000000e+00, 0.000000000000000000e+00, 1.000000000000000000e+02
9.400000000000000000e+01, 4.514872000000000298e+03, 4.293332999999999629e+03, 4.130256000000000313e+03, 4.175896999999999935e+03, 4.735896999999999935e+03, 0.000000000000000000e+00, 0.000000000000000000e+00, 1.000000000000000000e+02
9.500000000000000000e+01, 4.506667000000000371e+03, 4.285127999999999702e+03, 4.125640999999999622e+03, 4.179487000000000080e+03, 4.740512999999999920e+03, 0.000000000000000000e+00, 0.000000000000000000e+00, 1.000000000000000000e+02
9.600000000000000000e+01, 4.506154000000000451e+03, 4.274872000000000298e+03, 4.121025999999999840e+03, 4.185127999999999702e+03, 4.747692000000000007e+03, 0.000000000000000000e+00, 0.000000000000000000e+00, 1.000000000000000000e+02
9.700000000000000000e+01, 4.509230999999999767e+03, 4.274872000000000298e+03, 4.132307999999999993e+03, 4.192307999999999993e+03, 4.754872000000000298e+03, 0.000000000000000000e+00, 0.000000000000000000e+00, 1.000000000000000000e+02
9.800000000000000000e+01, 4.506667000000000371e+03, 4.278974000000000160e+03, 4.140000000000000000e+03, 4.188204999999999927e+03, 4.749743999999999687e+03, 0.000000000000000000e+00, 0.000000000000000000e+00, 1.000000000000000000e+02
9.900000000000000000e+01, 4.507692000000000007e+03, 4.276922999999999774e+03, 4.137948999999999614e+03, 4.187692000000000007e+03, 4.740512999999999920e+03, 0.000000000000000000e+00, 0.000000000000000000e+00, 1.000000000000000000e+02
1.000000000000000000e+02, 4.507179000000000087e+03, 4.276922999999999774e+03, 4.140000000000000000e+03, 4.190769000000000233e+03, 4.731795000000000073e+03, 0.000000000000000000e+00, 0.000000000000000000e+00, 1.000000000000000000e+02
1.010000000000000000e+02, 4.498462000000000444e+03, 4.283077000000000226e+03, 4.146154000000000451e+03, 4.175385000000000218e+03, 4.717948999999999614e+03, 0.000000000000000000e+00, 0.000000000000000000e+00, 1.000000000000000000e+02
1.020000000000000000e+02, 4.490256000000000313e+03, 4.287179000000000087e+03, 4.143590000000000146e+03, 4.155385000000000218e+03, 4.703077000000000226e+03, 0.000000000000000000e+00, 0.000000000000000000e+00, 1.000000000000000000e+02
1.030000000000000000e+02, 4.488717999999999847e+03, 4.287179000000000087e+03, 4.131795000000000073e+03, 4.150769000000000233e+03, 4.693332999999999629e+03, 0.000000000000000000e+00, 0.000000000000000000e+00, 1.000000000000000000e+02
1.040000000000000000e+02, 4.486667000000000371e+03, 4.281025999999999840e+03, 4.123077000000000226e+03, 4.152307999999999993e+03, 4.687692000000000007e+03, 0.000000000000000000e+00, 0.000000000000000000e+00, 1.000000000000000000e+02
1.050000000000000000e+02, 4.487179000000000087e+03, 4.274872000000000298e+03, 4.125640999999999622e+03, 4.155385000000000218e+03, 4.694872000000000298e+03, 0.000000000000000000e+00, 0.000000000000000000e+00, 1.000000000000000000e+02
1.060000000000000000e+02, 4.495896999999999935e+03, 4.281025999999999840e+03, 4.136922999999999774e+03, 4.164103000000000065e+03, 4.712820999999999913e+03, 0.000000000000000000e+00, 0.000000000000000000e+00, 1.000000000000000000e+02
1.070000000000000000e+02, 4.498462000000000444e+03, 4.285127999999999702e+03, 4.133845999999999549e+03, 4.172820999999999913e+03, 4.713845999999999549e+03, 0.000000000000000000e+00, 0.000000000000000000e+00, 1.000000000000000000e+02
1.080000000000000000e+02, 4.489743999999999687e+03, 4.278974000000000160e+03, 4.115385000000000218e+03, 4.181025999999999840e+03, 4.701025999999999840e+03, 0.000000000000000000e+00, 0.000000000000000000e+00, 1.000000000000000000e+02
1.090000000000000000e+02, 4.487692000000000007e+03, 4.274872000000000298e+03, 4.107692000000000007e+03, 4.188204999999999927e+03, 4.697948999999999614e+03, 0.000000000000000000e+00, 0.000000000000000000e+00, 1.000000000000000000e+02
1.100000000000000000e+02, 4.494359000000000378e+03, 4.278974000000000160e+03, 4.112307999999999993e+03, 4.186667000000000371e+03, 4.699487000000000080e+03, 0.000000000000000000e+00, 0.000000000000000000e+00, 1.000000000000000000e+02
1.110000000000000000e+02, 4.489230999999999767e+03, 4.278974000000000160e+03, 4.117948999999999614e+03, 4.181025999999999840e+03, 4.691795000000000073e+03, 0.000000000000000000e+00, 0.000000000000000000e+00, 1.000000000000000000e+02
1.120000000000000000e+02, 4.476409999999999854e+03, 4.270769000000000233e+03, 4.127179000000000087e+03, 4.176409999999999854e+03, 4.686154000000000451e+03, 0.000000000000000000e+00, 0.000000000000000000e+00, 1.000000000000000000e+02
1.130000000000000000e+02, 4.475896999999999935e+03, 4.266667000000000371e+03, 4.122564000000000306e+03, 4.167179000000000087e+03, 4.690256000000000313e+03, 0.000000000000000000e+00, 0.000000000000000000e+00, 1.000000000000000000e+02
1.140000000000000000e+02, 4.472820999999999913e+03, 4.266667000000000371e+03, 4.106667000000000371e+03, 4.152307999999999993e+03, 4.681025999999999840e+03, 0.000000000000000000e+00, 0.000000000000000000e+00, 1.000000000000000000e+02
1.150000000000000000e+02, 4.467692000000000007e+03, 4.264614999999999782e+03, 4.111282000000000153e+03, 4.148204999999999927e+03, 4.665640999999999622e+03, 0.000000000000000000e+00, 0.000000000000000000e+00, 1.000000000000000000e+02
1.160000000000000000e+02, 4.468204999999999927e+03, 4.262564000000000306e+03, 4.127692000000000007e+03, 4.157435999999999694e+03, 4.672307999999999993e+03, 0.000000000000000000e+00, 0.000000000000000000e+00, 1.000000000000000000e+02
1.170000000000000000e+02, 4.470769000000000233e+03, 4.264614999999999782e+03, 4.127692000000000007e+03, 4.172307999999999993e+03, 4.686667000000000371e+03, 0.000000000000000000e+00, 0.000000000000000000e+00, 1.000000000000000000e+02
1.180000000000000000e+02, 4.466154000000000451e+03, 4.264614999999999782e+03, 4.118974000000000160e+03, 4.183077000000000226e+03, 4.682051000000000386e+03, 0.000000000000000000e+00, 0.000000000000000000e+00, 1.000000000000000000e+02
1.190000000000000000e+02, 4.462564000000000306e+03, 4.264614999999999782e+03, 4.122564000000000306e+03, 4.183077000000000226e+03, 4.669230999999999767e+03, 0.000000000000000000e+00, 0.000000000000000000e+00, 1.000000000000000000e+02
1.200000000000000000e+02, 4.462564000000000306e+03, 4.266667000000000371e+03, 4.125127999999999702e+03, 4.179487000000000080e+03, 4.662564000000000306e+03, 0.000000000000000000e+00, 0.000000000000000000e+00, 1.000000000000000000e+02
1.210000000000000000e+02, 4.457948999999999614e+03, 4.262564000000000306e+03, 4.117435999999999694e+03, 4.181025999999999840e+03, 4.654872000000000298e+03, 0.000000000000000000e+00, 0.000000000000000000e+00, 1.000000000000000000e+02
1.220000000000000000e+02, 4.456409999999999854e+03, 4.264614999999999782e+03, 4.122564000000000306e+03, 4.185127999999999702e+03, 4.653332999999999629e+03, 0.000000000000000000e+00, 0.000000000000000000e+00, 1.000000000000000000e+02
1.230000000000000000e+02, 4.460512999999999920e+03, 4.270769000000000233e+03, 4.137948999999999614e+03, 4.188717999999999847e+03, 4.660512999999999920e+03, 0.000000000000000000e+00, 0.000000000000000000e+00, 1.000000000000000000e+02
1.240000000000000000e+02, 4.458974000000000160e+03, 4.268717999999999847e+03, 4.138974000000000160e+03, 4.188717999999999847e+03, 4.658462000000000444e+03, 0.000000000000000000e+00, 0.000000000000000000e+00, 1.000000000000000000e+02
1.250000000000000000e+02, 4.446667000000000371e+03, 4.260512999999999920e+03, 4.126667000000000371e+03, 4.175385000000000218e+03, 4.643590000000000146e+03, 0.000000000000000000e+00, 0.000000000000000000e+00, 1.000000000000000000e+02
1.260000000000000000e+02, 4.441025999999999840e+03, 4.258462000000000444e+03, 4.118974000000000160e+03, 4.161537999999999556e+03, 4.634872000000000298e+03, 0.000000000000000000e+00, 0.000000000000000000e+00, 1.000000000000000000e+02
1.270000000000000000e+02, 4.457435999999999694e+03, 4.262564000000000306e+03, 4.122051000000000386e+03, 4.173332999999999629e+03, 4.650256000000000313e+03, 0.000000000000000000e+00, 0.000000000000000000e+00, 1.000000000000000000e+02
0.000000000000000000e+00, 4.470256000000000313e+03, 4.266667000000000371e+03, 4.125640999999999622e+03, 4.191282000000000153e+03, 4.666154000000000451e+03, 0.000000000000000000e+00, 0.000000000000000000e+00, 1.000000000000000000e+02
1.000000000000000000e+00, 4.461537999999999556e+03, 4.262564000000000306e+03, 4.120000000000000000e+03, 4.186154000000000451e+03, 4.657948999999999614e+03, 0.000000000000000000e+00, 0.000000000000000000e+00, 1.000000000000000000e+02
2.000000000000000000e+00, 4.455385000000000218e+03, 4.260512999999999920e+03, 4.117435999999999694e+03, 4.182564000000000306e+03, 4.646667000000000371e+03, 0.000000000000000000e+00, 0.000000000000000000e+00, 1.000000000000000000e+02
3.000000000000000000e+00, 4.462564000000000306e+03, 4.264614999999999782e+03, 4.127179000000000087e+03, 4.191282000000000153e+03, 4.651282000000000153e+03, 0.000000000000000000e+00, 0.000000000000000000e+00, 1.000000000000000000e+02
4.000000000000000000e+00, 4.454872000000000298e+03, 4.258462000000000444e+03, 4.121025999999999840e+03, 4.182051000000000386e+03, 4.648717999999999847e+03, 0.000000000000000000e+00, 0.000000000000000000e+00, 1.000000000000000000e+02
5.000000000000000000e+00, 4.443077000000000226e+03, 4.246154000000000451e+03, 4.106154000000000451e+03, 4.171282000000000153e+03, 4.635896999999999935e+03, 0.000000000000000000e+00, 0.000000000000000000e+00, 1.000000000000000000e+02
6.000000000000000000e+00, 4.456409999999999854e+03, 4.254359000000000378e+03, 4.117948999999999614e+03, 4.180512999999999920e+03, 4.638462000000000444e+03, 0.000000000000000000e+00, 0.000000000000000000e+00, 1.000000000000000000e+02
7.000000000000000000e+00, 4.464103000000000065e+03, 4.262564000000000306e+03, 4.123590000000000146e+03, 4.176409999999999854e+03, 4.638974000000000160e+03, 0.000000000000000000e+00, 0.000000000000000000e+00, 1.000000000000000000e+02
8.000000000000000000e+00, 4.446667000000000371e+03, 4.250256000000000313e+03, 4.103590000000000146e+03, 4.168204999999999927e+03, 4.621025999999999840e+03, 0.000000000000000000e+00, 0.000000000000000000e+00, 1.000000000000000000e+02
9.000000000000000000e+00, 4.437435999999999694e+03, 4.244103000000000065e+03, 4.103077000000000226e+03, 4.176409999999999854e+03, 4.613845999999999549e+03, 0.000000000000000000e+00, 0.000000000000000000e+00, 1.000000000000000000e+02
1.000000000000000000e+01, 4.437948999999999614e+03, 4.246154000000000451e+03, 4.111282000000000153e+03, 4.169743999999999687e+03, 4.620512999999999920e+03, 0.000000000000000000e+00, 0.000000000000000000e+00, 1.000000000000000000e+02
1.100000000000000000e+01, 4.432307999999999993e+03, 4.242051000000000386e+03, 4.096409999999999854e+03, 4.154872000000000298e+03, 4.616409999999999854e+03, 0.000000000000000000e+00, 0.000000000000000000e+00, 1.000000000000000000e+02
1.200000000000000000e+01, 4.423590000000000146e+03, 4.235896999999999935e+03, 4.086153999999999996e+03, 4.164103000000000065e+03, 4.600512999999999920e+03, 0.000000000000000000e+00, 0.000000000000000000e+00, 1.000000000000000000e+02
1.300000000000000000e+01, 4.412820999999999913e+03, 4.240000000000000000e+03, 4.097948999999999614e+03, 4.172307999999999993e+03, 4.588204999999999927e+03, 0.000000000000000000e+00, 0.000000000000000000e+00, 1.000000000000000000e+02
1.400000000000000000e+01, 4.407692000000000007e+03, 4.246154000000000451e+03, 4.111282000000000153e+03, 4.168204999999999927e+03, 4.584614999999999782e+03, 0.000000000000000000e+00, 0.000000000000000000e+00, 1.000000000000000000e+02
1.500000000000000000e+01, 4.411795000000000073e+03, 4.250256000000000313e+03, 4.115385000000000218e+03, 4.179487000000000080e+03, 4.586154000000000451e+03, 0.000000000000000000e+00, 0.000000000000000000e+00, 1.000000000000000000e+02
1.600000000000000000e+01, 4.409743999999999687e+03, 4.240000000000000000e+03, 4.108717999999999847e+03, 4.184103000000000065e+03, 4.584614999999999782e+03, 0.000000000000000000e+00, 0.000000000000000000e+00, 1.000000000000000000e+02
1.700000000000000000e+01, 4.408717999999999847e+03, 4.231795000000000073e+03, 4.104614999999999782e+03, 4.169230999999999767e+03, 4.583077000000000226e+03, 0.000000000000000000e+00, 0.000000000000000000e+00, 1.000000000000000000e+02
1.800000000000000000e+01, 4.422564000000000306e+03, 4.242051000000000386e+03, 4.113332999999999629e+03, 4.174359000000000378e+03, 4.587179000000000087e+03, 0.000000000000000000e+00, 0.000000000000000000e+00, 1.000000000000000000e+02
1.900000000000000000e+01, 4.423077000000000226e+03, 4.244103000000000065e+03, 4.112820999999999913e+03, 4.192307999999999993e+03, 4.587692000000000007e+03, 0.000000000000000000e+00, 0.000000000000000000e+00, 1.000000000000000000e+02
2.000000000000000000e+01, 4.403590000000000146e+03, 4.227692000000000007e+03, 4.095385000000000218e+03, 4.184103000000000065e+03, 4.578974000000000160e+03, 0.000000000000000000e+00, 0.000000000000000000e+00, 1.000000000000000000e+02
2.100000000000000000e+01, 4.405127999999999702e+03, 4.227692000000000007e+03, 4.093846000000000004e+03, 4.171795000000000073e+03, 4.577948999999999614e+03, 0.000000000000000000e+00, 0.000000000000000000e+00, 1.000000000000000000e+02
2.200000000000000000e+01, 4.422564000000000306e+03, 4.242051000000000386e+03, 4.109230999999999767e+03, 4.183077000000000226e+03, 4.587179000000000087e+03, 0.000000000000000000e+00, 0.000000000000000000e+00, 1.000000000000000000e+02
2.300000000000000000e+01, 4.418462000000000444e+03, 4.235896999999999935e+03, 4.109230999999999767e+03, 4.190256000000000313e+03, 4.585127999999999702e+03, 0.000000000000000000e+00, 0.000000000000000000e+00, 1.000000000000000000e+02
2.400000000000000000e+01, 4.411795000000000073e+03, 4.223590000000000146e+03, 4.101025999999999840e+03, 4.184103000000000065e+03, 4.577435999999999694e+03, 0.000000000000000000e+00, 0.000000000000000000e+00, 1.000000000000000000e+02
2.500000000000000000e+01, 4.429743999999999687e+03, 4.229743999999999687e+03, 4.110769000000000233e+03, 4.183077000000000226e+03, 4.583590000000000146e+03, 0.000000000000000000e+00, 0.000000000000000000e+00, 1.000000000000000000e+02
2.600000000000000000e+01, 4.449230999999999767e+03, 4.231795000000000073e+03, 4.121025999999999840e+03, 4.186154000000000451e+03, 4.600512999999999920e+03, 0.000000000000000000e+00, 0.000000000000000000e+00, 1.000000000000000000e+02
2.700000000000000000e+01, 4.456409999999999854e+03, 4.229743999999999687e+03, 4.123590000000000146e+03, 4.185127999999999702e+03, 4.613332999999999629e+03, 0.000000000000000000e+00, 0.000000000000000000e+00, 1.000000000000000000e+02
2.800000000000000000e+01, 4.467179000000000087e+03, 4.231795000000000073e+03, 4.129230999999999767e+03, 4.182051000000000386e+03, 4.621537999999999556e+03, 0.000000000000000000e+00, 0.000000000000000000e+00, 1.000000000000000000e+02
2.900000000000000000e+01, 4.477948999999999614e+03, 4.229743999999999687e+03, 4.131282000000000153e+03, 4.185127999999999702e+03, 4.625127999999999702e+03, 0.000000000000000000e+00, 0.000000000000000000e+00, 1.000000000000000000e+02
3.000000000000000000e+01, 4.481025999999999840e+03, 4.227692000000000007e+03, 4.122564000000000306e+03, 4.186667000000000371e+03, 4.622564000000000306e+03, 0.000000000000000000e+00, 0.000000000000000000e+00, 1.000000000000000000e+02
3.100000000000000000e+01, 4.476922999999999774e+03, 4.229743999999999687e+03, 4.110256000000000313e+03, 4.181537999999999556e+03, 4.614872000000000298e+03, 0.000000000000000000e+00, 0.000000000000000000e+00, 1.000000000000000000e+02
3.200000000000000000e+01, 4.471282000000000153e+03, 4.229743999999999687e+03, 4.113845999999999549e+03, 4.184614999999999782e+03, 4.613845999999999549e+03, 0.000000000000000000e+00, 0.000000000000000000e+00, 1.000000000000000000e+02
3.300000000000000000e+01, 4.470256000000000313e+03, 4.231795000000000073e+03, 4.121025999999999840e+03, 4.185640999999999622e+03, 4.618974000000000160e+03, 0.000000000000000000e+00, 0.000000000000000000e+00, 1.000000000000000000e+02
3.400000000000000000e+01, 4.463590000000000146e+03, 4.227692000000000007e+03, 4.108717999999999847e+03, 4.173332999999999629e+03, 4.607179000000000087e+03, 0.000000000000000000e+00, 0.000000000000000000e+00, 1.000000000000000000e+02
3.500000000000000000e+01, 4.460512999999999920e+03, 4.229743999999999687e+03, 4.111282000000000153e+03, 4.173845999999999549e+03, 4.598974000000000160e+03, 0.000000000000000000e+00, 0.000000000000000000e+00, 1.000000000000000000e+02
3.600000000000000000e+01, 4.462564000000000306e+03, 4.242051000000000386e+03, 4.136409999999999854e+03, 4.188204999999999927e+03, 4.598974000000000160e+03, 0.000000000000000000e+00, 0.000000000000000000e+00, 1.000000000000000000e+02
3.700000000000000000e+01, 4.449743999999999687e+03, 4.246154000000000451e+03, 4.137435999999999694e+03, 4.188204999999999927e+03, 4.580000000000000000e+03, 0.000000000000000000e+00, 0.000000000000000000e+00, 1.000000000000000000e+02
3.800000000000000000e+01, 4.434872000000000298e+03, 4.237948999999999614e+03, 4.122051000000000386e+03, 4.181025999999999840e+03, 4.565640999999999622e+03, 0.000000000000000000e+00, 0.000000000000000000e+00, 1.000000000000000000e+02
3.900000000000000000e+01, 4.438974000000000160e+03, 4.240000000000000000e+03, 4.134359000000000378e+03, 4.182051000000000386e+03, 4.573332999999999629e+03, 0.000000000000000000e+00, 0.000000000000000000e+00, 1.000000000000000000e+02
4.000000000000000000e+01, 4.446667000000000371e+03, 4.248204999999999927e+03, 4.153845999999999549e+03, 4.184103000000000065e+03, 4.575385000000000218e+03, 0.000000000000000000e+00, 0.000000000000000000e+00, 1.000000000000000000e+02
4.100000000000000000e+01, 4.440000000000000000e+03, 4.250256000000000313e+03, 4.152820999999999913e+03, 4.184103000000000065e+03, 4.568717999999999847e+03, 0.000000000000000000e+00, 0.000000000000000000e+00, 1.000000000000000000e+02
4.200000000000000000e+01, 4.430769000000000233e+03, 4.248204999999999927e+03, 4.152820999999999913e+03, 4.184614999999999782e+03, 4.570769000000000233e+03, 0.000000000000000000e+00, 0.000000000000000000e+00, 1.000000000000000000e+02
4.300000000000000000e+01, 4.428204999999999927e+03, 4.248204999999999927e+03, 4.152307999999999993e+03, 4.185640999999999622e+03, 4.571282000000000153e+03, 0.000000000000000000e+00, 0.000000000000000000e+00, 1.000000000000000000e+02
4.400000000000000000e+01, 4.431795000000000073e+03, 4.250256000000000313e+03, 4.144614999999999782e+03, 4.189230999999999767e+03, 4.570769000000000233e+03, 0.000000000000000000e+00, 0.000000000000000000e+00, 1.000000000000000000e+02
4.500000000000000000e+01, 4.431282000000000153e+03, 4.248204999999999927e+03, 4.132307999999999993e+03, 4.186667000000000371e+03, 4.572307999999999993e+03, 0.000000000000000000e+00, 0.000000000000000000e+00, 1.000000000000000000e+02
4.600000000000000000e+01, 4.424103000000000065e+03, 4.244103000000000065e+03, 4.121025999999999840e+03, 4.178974000000000160e+03, 4.566154000000000451e+03, 0.000000000000000000e+00, 0.000000000000000000e+00, 1.000000000000000000e+02
4.700000000000000000e+01, 4.429743999999999687e+03, 4.244103000000000065e+03, 4.125127999999999702e+03, 4.187179000000000087e+03, 4.568204999999999927e+03, 0.000000000000000000e+00, 0.000000000000000000e+00, 1.000000000000000000e+02
4.800000000000000000e+01, 4.436922999999999774e+03, 4.252307999999999993e+03, 4.138462000000000444e+03, 4.203077000000000226e+03, 4.577948999999999614e+03, 0.000000000000000000e+00, 0.000000000000000000e+00, 1.000000000000000000e+02
4.900000000000000000e+01, 4.422051000000000386e+03, 4.250256000000000313e+03, 4.140512999999999920e+03, 4.202564000000000306e+03, 4.565640999999999622e+03, 0.000000000000000000e+00, 0.000000000000000000e+00, 1.000000000000000000e+02
5.000000000000000000e+01, 4.412307999999999993e+03, 4.244103000000000065e+03, 4.137948999999999614e+03, 4.195385000000000218e+03, 4.555385000000000218e+03, 0.000000000000000000e+00, 0.000000000000000000e+00, 1.000000000000000000e+02
5.100000000000000000e+01, 4.425127999999999702e+03, 4.248204999999999927e+03, 4.144103000000000065e+03, 4.197435999999999694e+03, 4.567692000000000007e+03, 0.000000000000000000e+00, 0.000000000000000000e+00, 1.000000000000000000e+02
5.200000000000000000e+01, 4.425640999999999622e+03, 4.248204999999999927e+03, 4.143590000000000146e+03, 4.190256000000000313e+03, 4.567692000000000007e+03, 0.000000000000000000e+00, 0.000000000000000000e+00, 1.000000000000000000e+02
5.300000000000000000e+01, 4.410256000000000313e+03, 4.242051000000000386e+03, 4.137948999999999614e+03, 4.179487000000000080e+03, 4.549743999999999687e+03, 0.000000000000000000e+00, 0.000000000000000000e+00, 1.000000000000000000e+02
5.400000000000000000e+01, 4.408717999999999847e+03, 4.252307999999999993e+03, 4.149230999999999767e+03, 4.192307999999999993e+03, 4.553332999999999629e+03, 0.000000000000000000e+00, 0.000000000000000000e+00, 1.000000000000000000e+02
5.500000000000000000e+01, 4.415896999999999935e+03, 4.262564000000000306e+03, 4.162051000000000386e+03, 4.203077000000000226e+03, 4.560000000000000000e+03, 0.000000000000000000e+00, 0.000000000000000000e+00, 1.000000000000000000e+02
5.600000000000000000e+01, 4.411282000000000153e+03, 4.252307999999999993e+03, 4.146667000000000371e+03, 4.182564000000000306e+03, 4.540000000000000000e+03, 0.000000000000000000e+00, 0.000000000000000000e+00, 1.000000000000000000e+02
5.700000000000000000e+01, 4.408717999999999847e+03, 4.246154000000000451e+03, 4.126154000000000451e+03, 4.167179000000000087e+03, 4.528717999999999847e+03, 0.000000000000000000e+00, 0.000000000000000000e+00, 1.000000000000000000e+02
5.800000000000000000e+01, 4.410769000000000233e+03, 4.250256000000000313e+03, 4.128717999999999847e+03, 4.172820999999999913e+03, 4.537948999999999614e+03, 0.000000000000000000e+00, 0.000000000000000000e+00, 1.000000000000000000e+02
5.900000000000000000e+01, 4.400000000000000000e+03, 4.248204999999999927e+03, 4.131282000000000153e+03, 4.171282000000000153e+03, 4.528204999999999927e+03, 0.000000000000000000e+00, 1.000000000000000000e+00, 1.000000000000000000e+02
6.000000000000000000e+01, 4.391795000000000073e+03, 4.252307999999999993e+03, 4.128717999999999847e+03, 4.173332999999999629e+03, 4.508204999999999927e+03, 0.000000000000000000e+00, 1.000000000000000000e+00, 1.000000000000000000e+02
6.100000000000000000e+01, 4.398462000000000444e+03, 4.264614999999999782e+03, 4.135385000000000218e+03, 4.190256000000000313e+03, 4.513332999999999629e+03, 0.000000000000000000e+00, 1.000000000000000000e+00, 1.000000000000000000e+02
6.200000000000000000e+01, 4.398974000000000160e+03, 4.262564000000000306e+03, 4.141537999999999556e+03, 4.188204999999999927e+03, 4.522051000000000386e+03, 0.000000000000000000e+00, 1.000000000000000000e+00, 1.000000000000000000e+02
6.300000000000000000e+01, 4.393332999999999629e+03, 4.256409999999999854e+03, 4.142564000000000306e+03, 4.176409999999999854e+03, 4.516409999999999854e+03, 0.000000000000000000e+00, 1.000000000000000000e+00, 1.000000000000000000e+02
6.400000000000000000e+01, 4.405127999999999702e+03, 4.264614999999999782e+03, 4.152307999999999993e+03, 4.192820999999999913e+03, 4.524103000000000065e+03, 0.000000000000000000e+00, 1.000000000000000000e+00, 1.000000000000000000e+02
6.500000000000000000e+01, 4.415385000000000218e+03, 4.264614999999999782e+03, 4.153845999999999549e+03, 4.204614999999999782e+03, 4.529230999999999767e+03, 0.000000000000000000e+00, 1.000000000000000000e+00, 1.000000000000000000e+02
6.600000000000000000e+01, 4.402564000000000306e+03, 4.258462000000000444e+03, 4.137948999999999614e+03, 4.190256000000000313e+03, 4.513845999999999549e+03, 0.000000000000000000e+00, 1.000000000000000000e+00, 1.000000000000000000e+02
6.700000000000000000e+01, 4.393332999999999629e+03, 4.260512999999999920e+03, 4.131282000000000153e+03, 4.186667000000000371e+03, 4.500512999999999920e+03, 0.000000000000000000e+00, 1.000000000000000000e+00, 1.000000000000000000e+02
6.800000000000000000e+01, 4.394359000000000378e+03, 4.258462000000000444e+03, 4.130256000000000313e+03, 4.189743999999999687e+03, 4.494359000000000378e+03, 0.000000000000000000e+00, 1.000000000000000000e+00, 1.000000000000000000e+02
6.900000000000000000e+01, 4.392307999999999993e+03, 4.250256000000000313e+03, 4.115385000000000218e+03, 4.173332999999999629e+03, 4.492307999999999993e+03, 0.000000000000000000e+00, 1.000000000000000000e+00, 1.000000000000000000e+02
7.000000000000000000e+01, 4.398462000000000444e+03, 4.248204999999999927e+03, 4.104103000000000065e+03, 4.165640999999999622e+03, 4.503077000000000226e+03, 0.000000000000000000e+00, 1.000000000000000000e+00, 1.000000000000000000e+02
7.100000000000000000e+01, 4.404103000000000065e+03, 4.250256000000000313e+03, 4.109230999999999767e+03, 4.184103000000000065e+03, 4.506667000000000371e+03, 0.000000000000000000e+00, 1.000000000000000000e+00, 1.000000000000000000e+02
7.200000000000000000e+01, 4.384614999999999782e+03, 4.248204999999999927e+03, 4.108717999999999847e+03, 4.184103000000000065e+03, 4.484103000000000065e+03, 0.000000000000000000e+00, 1.000000000000000000e+00, 1.000000000000000000e+02
7.300000000000000000e+01, 4.369230999999999767e+03, 4.240000000000000000e+03, 4.101537999999999556e+03, 4.165640999999999622e+03, 4.468717999999999847e+03, 0.000000000000000000e+00, 1.000000000000000000e+00, 1.000000000000000000e+02
7.400000000000000000e+01, 4.376922999999999774e+03, 4.237948999999999614e+03, 4.106667000000000371e+03, 4.168204999999999927e+03, 4.477948999999999614e+03, 0.000000000000000000e+00, 1.000000000000000000e+00, 1.000000000000000000e+02
7.500000000000000000e+01, 4.382051000000000386e+03, 4.242051000000000386e+03, 4.121025999999999840e+03, 4.184103000000000065e+03, 4.486667000000000371e+03, 0.000000000000000000e+00, 1.000000000000000000e+00, 1.000000000000000000e+02
7.600000000000000000e+01, 4.378462000000000444e+03, 4.237948999999999614e+03, 4.124103000000000065e+03, 4.188717999999999847e+03, 4.475896999999999935e+03, 0.000000000000000000e+00, 1.000000000000000000e+00, 1.000000000000000000e+02
7.700000000000000000e+01, 4.373845999999999549e+03, 4.231795000000000073e+03, 4.120000000000000000e+03, 4.178974000000000160e+03, 4.457948999999999614e+03, 0.000000000000000000e+00, 1.000000000000000000e+00, 1.000000000000000000e+02
7.800000000000000000e+01, 4.371795000000000073e+03, 4.231795000000000073e+03, 4.127692000000000007e+03, 4.175385000000000218e+03, 4.461025999999999840e+03, 0.000000000000000000e+00, 1.000000000000000000e+00, 1.000000000000000000e+02
7.900000000000000000e+01, 4.380000000000000000e+03, 4.235896999999999935e+03, 4.135385000000000218e+03, 4.185127999999999702e+03, 4.476409999999999854e+03, 0.000000000000000000e+00, 1.000000000000000000e+00, 1.000000000000000000e+02
8.000000000000000000e+01, 4.391282000000000153e+03, 4.237948999999999614e+03, 4.130256000000000313e+03, 4.189230999999999767e+03, 4.479487000000000080e+03, 0.000000000000000000e+00, 1.000000000000000000e+00, 1.000000000000000000e+02
8.100000000000000000e+01, 4.384103000000000065e+03, 4.237948999999999614e+03, 4.123590000000000146e+03, 4.177948999999999614e+03, 4.470256000000000313e+03, 0.000000000000000000e+00, 1.000000000000000000e+00, 1.000000000000000000e+02
8.200000000000000000e+01, 4.364103000000000065e+03, 4.229743999999999687e+03, 4.118974000000000160e+03, 4.170256000000000313e+03, 4.459487000000000080e+03, 0.000000000000000000e+00, 1.000000000000000000e+00, 1.000000000000000000e+02
8.300000000000000000e+01, 4.355896999999999935e+03, 4.229743999999999687e+03, 4.110256000000000313e+03, 4.172307999999999993e+03, 4.455385000000000218e+03, 0.000000000000000000e+00, 1.000000000000000000e+00, 1.000000000000000000e+02
8.400000000000000000e+01, 4.358462000000000444e+03, 4.231795000000000073e+03, 4.106667000000000371e+03, 4.172307999999999993e+03, 4.457948999999999614e+03, 0.000000000000000000e+00, 1.000000000000000000e+00, 1.000000000000000000e+02
8.500000000000000000e+01, 4.365127999999999702e+03, 4.237948999999999614e+03, 4.119487000000000080e+03, 4.175896999999999935e+03, 4.463590000000000146e+03, 0.000000000000000000e+00, 1.000000000000000000e+00, 1.000000000000000000e+02
8.600000000000000000e+01, 4.372307999999999993e+03, 4.244103000000000065e+03, 4.127692000000000007e+03, 4.185640999999999622e+03, 4.464103000000000065e+03, 0.000000000000000000e+00, 1.000000000000000000e+00, 1.000000000000000000e+02
8.700000000000000000e+01, 4.372307999999999993e+03, 4.237948999999999614e+03, 4.124614999999999782e+03, 4.189230999999999767e+03, 4.462051000000000386e+03, 0.000000000000000000e+00, 1.000000000000000000e+00, 1.000000000000000000e+02
8.800000000000000000e+01, 4.365127999999999702e+03, 4.233845999999999549e+03, 4.128717999999999847e+03, 4.185640999999999622e+03, 4.460000000000000000e+03, 0.000000000000000000e+00, 1.000000000000000000e+00, 1.000000000000000000e+02
8.900000000000000000e+01, 4.361537999999999556e+03, 4.244103000000000065e+03, 4.138974000000000160e+03, 4.184614999999999782e+03, 4.460000000000000000e+03, 0.000000000000000000e+00, 1.000000000000000000e+00, 1.000000000000000000e+02
9.000000000000000000e+01, 4.365127999999999702e+03, 4.246154000000000451e+03, 4.142564000000000306e+03, 4.190256000000000313e+03, 4.459487000000000080e+03, 0.000000000000000000e+00, 1.000000000000000000e+00, 1.000000000000000000e+02
9.100000000000000000e+01, 4.367179000000000087e+03, 4.235896999999999935e+03, 4.137435999999999694e+03, 4.187692000000000007e+03, 4.458974000000000160e+03, 0.000000000000000000e+00, 1.000000000000000000e+00, 1.000000000000000000e+02
9.200000000000000000e+01, 4.369230999999999767e+03, 4.233845999999999549e+03, 4.131282000000000153e+03, 4.182051000000000386e+03, 4.459487000000000080e+03, 0.000000000000000000e+00, 1.000000000000000000e+00, 1.000000000000000000e+02
9.300000000000000000e+01, 4.369230999999999767e+03, 4.237948999999999614e+03, 4.128204999999999927e+03, 4.185127999999999702e+03, 4.454872000000000298e+03, 0.000000000000000000e+00, 1.000000000000000000e+00, 1.000000000000000000e+02
9.400000000000000000e+01, 4.361025999999999840e+03, 4.235896999999999935e+03, 4.122051000000000386e+03, 4.180000000000000000e+03, 4.448717999999999847e+03, 0.000000000000000000e+00, 1.000000000000000000e+00, 1.000000000000000000e+02
9.500000000000000000e+01, 4.346154000000000451e+03, 4.231795000000000073e+03, 4.110256000000000313e+03, 4.173332999999999629e+03, 4.439487000000000080e+03, 0.000000000000000000e+00, 1.000000000000000000e+00, 1.000000000000000000e+02
9.600000000000000000e+01, 4.340512999999999920e+03, 4.235896999999999935e+03, 4.113332999999999629e+03, 4.182564000000000306e+03, 4.431795000000000073e+03, 0.000000000000000000e+00, 1.000000000000000000e+00, 1.000000000000000000e+02
9.700000000000000000e+01, 4.346667000000000371e+03, 4.244103000000000065e+03, 4.128204999999999927e+03, 4.184103000000000065e+03, 4.432307999999999993e+03, 0.000000000000000000e+00, 1.000000000000000000e+00, 1.000000000000000000e+02
9.800000000000000000e+01, 4.343077000000000226e+03, 4.242051000000000386e+03, 4.129230999999999767e+03, 4.169743999999999687e+03, 4.427179000000000087e+03, 0.000000000000000000e+00, 1.000000000000000000e+00, 1.000000000000000000e+02
9.900000000000000000e+01, 4.327179000000000087e+03, 4.227692000000000007e+03, 4.127179000000000087e+03, 4.169743999999999687e+03, 4.415896999999999935e+03, 0.000000000000000000e+00, 1.000000000000000000e+00, 1.000000000000000000e+02
1.000000000000000000e+02, 4.321537999999999556e+03, 4.223590000000000146e+03, 4.135385000000000218e+03, 4.173332999999999629e+03, 4.407692000000000007e+03, 0.000000000000000000e+00, 1.000000000000000000e+00, 1.000000000000000000e+02
1.010000000000000000e+02, 4.326667000000000371e+03, 4.237948999999999614e+03, 4.138462000000000444e+03, 4.171282000000000153e+03, 4.403590000000000146e+03, 0.000000000000000000e+00, 1.000000000000000000e+00, 1.000000000000000000e+02
1.020000000000000000e+02, 4.328204999999999927e+03, 4.242051000000000386e+03, 4.135385000000000218e+03, 4.181537999999999556e+03, 4.409743999999999687e+03, 0.000000000000000000e+00, 1.000000000000000000e+00, 1.000000000000000000e+02
1.030000000000000000e+02, 4.332820999999999913e+03, 4.242051000000000386e+03, 4.143590000000000146e+03, 4.187692000000000007e+03, 4.426154000000000451e+03, 0.000000000000000000e+00, 1.000000000000000000e+00, 1.000000000000000000e+02
1.040000000000000000e+02, 4.342051000000000386e+03, 4.248204999999999927e+03, 4.155385000000000218e+03, 4.184614999999999782e+03, 4.429230999999999767e+03, 0.000000000000000000e+00, 1.000000000000000000e+00, 1.000000000000000000e+02
1.050000000000000000e+02, 4.341537999999999556e+03, 4.246154000000000451e+03, 4.155385000000000218e+03, 4.186154000000000451e+03, 4.417948999999999614e+03, 0.000000000000000000e+00, 1.000000000000000000e+00, 1.000000000000000000e+02
1.060000000000000000e+02, 4.337948999999999614e+03, 4.233845999999999549e+03, 4.147179000000000087e+03, 4.184614999999999782e+03, 4.417435999999999694e+03, 0.000000000000000000e+00, 1.000000000000000000e+00, 1.000000000000000000e+02
1.070000000000000000e+02, 4.339487000000000080e+03, 4.233845999999999549e+03, 4.139487000000000080e+03, 4.181025999999999840e+03, 4.416922999999999774e+03, 0.000000000000000000e+00, 1.000000000000000000e+00, 1.000000000000000000e+02
1.080000000000000000e+02, 4.338974000000000160e+03, 4.248204999999999927e+03, 4.136922999999999774e+03, 4.183077000000000226e+03, 4.408717999999999847e+03, 0.000000000000000000e+00, 1.000000000000000000e+00, 1.000000000000000000e+02
1.090000000000000000e+02, 4.329743999999999687e+03, 4.248204999999999927e+03, 4.129743999999999687e+03, 4.178974000000000160e+03, 4.398974000000000160e+03, 0.000000000000000000e+00, 1.000000000000000000e+00, 1.000000000000000000e+02
1.100000000000000000e+02, 4.314872000000000298e+03, 4.233845999999999549e+03, 4.118462000000000444e+03, 4.169230999999999767e+03, 4.387179000000000087e+03, 0.000000000000000000e+00, 1.000000000000000000e+00, 1.000000000000000000e+02
1.110000000000000000e+02, 4.309230999999999767e+03, 4.229743999999999687e+03, 4.121025999999999840e+03, 4.174872000000000298e+03, 4.384614999999999782e+03, 0.000000000000000000e+00, 1.000000000000000000e+00, 1.000000000000000000e+02
1.120000000000000000e+02, 4.311795000000000073e+03, 4.233845999999999549e+03, 4.126667000000000371e+03, 4.175896999999999935e+03, 4.384614999999999782e+03, 0.000000000000000000e+00, 1.000000000000000000e+00, 1.000000000000000000e+02
1.130000000000000000e+02, 4.314872000000000298e+03, 4.231795000000000073e+03, 4.126667000000000371e+03, 4.166667000000000371e+03, 4.376922999999999774e+03, 0.000000000000000000e+00, 1.000000000000000000e+00, 1.000000000000000000e+02
1.140000000000000000e+02, 4.324614999999999782e+03, 4.233845999999999549e+03, 4.133332999999999629e+03, 4.174872000000000298e+03, 4.381537999999999556e+03, 0.000000000000000000e+00, 1.000000000000000000e+00, 1.000000000000000000e+02
1.150000000000000000e+02, 4.331282000000000153e+03, 4.242051000000000386e+03, 4.142564000000000306e+03, 4.186667000000000371e+03, 4.395385000000000218e+03, 0.000000000000000000e+00, 1.000000000000000000e+00, 1.000000000000000000e+02
1.160000000000000000e+02, 4.326667000000000371e+03, 4.235896999999999935e+03, 4.141025999999999840e+03, 4.180000000000000000e+03, 4.390769000000000233e+03, 0.000000000000000000e+00, 1.000000000000000000e+00, 1.000000000000000000e+02
1.170000000000000000e+02, 4.330769000000000233e+03, 4.229743999999999687e+03, 4.136409999999999854e+03, 4.177948999999999614e+03, 4.386667000000000371e+03, 0.000000000000000000e+00, 1.000000000000000000e+00, 1.000000000000000000e+02
1.180000000000000000e+02, 4.344103000000000065e+03, 4.233845999999999549e+03, 4.138974000000000160e+03, 4.191795000000000073e+03, 4.400512999999999920e+03, 0.000000000000000000e+00, 1.000000000000000000e+00, 1.000000000000000000e+02
1.190000000000000000e+02, 4.333845999999999549e+03, 4.231795000000000073e+03, 4.134872000000000298e+03, 4.195385000000000218e+03, 4.402051000000000386e+03, 0.000000000000000000e+00, 1.000000000000000000e+00, 1.000000000000000000e+02
1.200000000000000000e+02, 4.314872000000000298e+03, 4.225640999999999622e+03, 4.132820999999999913e+03, 4.187179000000000087e+03, 4.387692000000000007e+03, 0.000000000000000000e+00, 1.000000000000000000e+00, 1.000000000000000000e+02
1.210000000000000000e+02, 4.316922999999999774e+03, 4.229743999999999687e+03, 4.149230999999999767e+03, 4.184103000000000065e+03, 4.384614999999999782e+03, 0.000000000000000000e+00, 1.000000000000000000e+00, 1.000000000000000000e+02
1.220000000000000000e+02, 4.313332999999999629e+03, 4.233845999999999549e+03, 4.151282000000000153e+03, 4.182051000000000386e+03, 4.384103000000000065e+03, 0.000000000000000000e+00, 1.000000000000000000e+00, 1.000000000000000000e+02
1.230000000000000000e+02, 4.301025999999999840e+03, 4.231795000000000073e+03, 4.137435999999999694e+03, 4.184103000000000065e+03, 4.378462000000000444e+03, 0.000000000000000000e+00, 1.000000000000000000e+00, 1.000000000000000000e+02
1.240000000000000000e+02, 4.311282000000000153e+03, 4.237948999999999614e+03, 4.146154000000000451e+03, 4.194872000000000298e+03, 4.385640999999999622e+03, 0.000000000000000000e+00, 1.000000000000000000e+00, 1.000000000000000000e+02
1.250000000000000000e+02, 4.323077000000000226e+03, 4.244103000000000065e+03, 4.159487000000000080e+03, 4.195896999999999935e+03, 4.388204999999999927e+03, 0.000000000000000000e+00, 1.000000000000000000e+00, 1.000000000000000000e+02
1.260000000000000000e+02, 4.315896999999999935e+03, 4.229743999999999687e+03, 4.146154000000000451e+03, 4.179487000000000080e+03, 4.372307999999999993e+03, 0.000000000000000000e+00, 1.000000000000000000e+00, 1.000000000000000000e+02
1.270000000000000000e+02, 4.305640999999999622e+03, 4.213332999999999629e+03, 4.127179000000000087e+03, 4.168717999999999847e+03, 4.356409999999999854e+03, 0.000000000000000000e+00, 1.000000000000000000e+00, 1.000000000000000000e+02
0.000000000000000000e+00, 4.295385000000000218e+03, 4.215385000000000218e+03, 4.116922999999999774e+03, 4.169230999999999767e+03, 4.346154000000000451e+03, 0.000000000000000000e+00, 1.000000000000000000e+00, 1.000000000000000000e+02
1.000000000000000000e+00, 4.284614999999999782e+03, 4.217435999999999694e+03, 4.110769000000000233e+03, 4.167179000000000087e+03, 4.338974000000000160e+03, 0.000000000000000000e+00, 1.000000000000000000e+00, 1.000000000000000000e+02
2.000000000000000000e+00, 4.286154000000000451e+03, 4.215385000000000218e+03, 4.115385000000000218e+03, 4.163077000000000226e+03, 4.337948999999999614e+03, 0.000000000000000000e+00, 1.000000000000000000e+00, 1.000000000000000000e+02
3.000000000000000000e+00, 4.292307999999999993e+03, 4.217435999999999694e+03, 4.129743999999999687e+03, 4.165127999999999702e+03, 4.341537999999999556e+03, 0.000000000000000000e+00, 1.000000000000000000e+00, 1.000000000000000000e+02
4.000000000000000000e+00, 4.292307999999999993e+03, 4.225640999999999622e+03, 4.138462000000000444e+03, 4.170769000000000233e+03, 4.342051000000000386e+03, 0.000000000000000000e+00, 1.000000000000000000e+00, 1.000000000000000000e+02
5.000000000000000000e+00, 4.291795000000000073e+03, 4.223590000000000146e+03, 4.138462000000000444e+03, 4.175385000000000218e+03, 4.339487000000000080e+03, 0.000000000000000000e+00, 1.000000000000000000e+00, 1.000000000000000000e+02
6.000000000000000000e+00, 4.296409999999999854e+03, 4.223590000000000146e+03, 4.137435999999999694e+03, 4.183077000000000226e+03, 4.342564000000000306e+03, 0.000000000000000000e+00, 1.000000000000000000e+00, 1.000000000000000000e+02
7.000000000000000000e+00, 4.303077000000000226e+03, 4.231795000000000073e+03, 4.142051000000000386e+03, 4.189230999999999767e+03, 4.353332999999999629e+03, 0.000000000000000000e+00, 1.000000000000000000e+00, 1.000000000000000000e+02
8.000000000000000000e+00, 4.307692000000000007e+03, 4.233845999999999549e+03, 4.142564000000000306e+03, 4.185127999999999702e+03, 4.353332999999999629e+03, 0.000000000000000000e+00, 1.000000000000000000e+00, 1.000000000000000000e+02
9.000000000000000000e+00, 4.307179000000000087e+03, 4.227692000000000007e+03, 4.132820999999999913e+03, 4.183077000000000226e+03, 4.341537999999999556e+03, 0.000000000000000000e+00, 1.000000000000000000e+00, 1.000000000000000000e+02
1.000000000000000000e+01, 4.302051000000000386e+03, 4.227692000000000007e+03, 4.137948999999999614e+03, 4.190769000000000233e+03, 4.338462000000000444e+03, 0.000000000000000000e+00, 1.000000000000000000e+00, 1.000000000000000000e+02
1.100000000000000000e+01, 4.293845999999999549e+03, 4.233845999999999549e+03, 4.144614999999999782e+03, 4.179487000000000080e+03, 4.331795000000000073e+03, 0.000000000000000000e+00, 1.000000000000000000e+00, 1.000000000000000000e+02
1.200000000000000000e+01, 4.291795000000000073e+03, 4.231795000000000073e+03, 4.131795000000000073e+03, 4.153845999999999549e+03, 4.323077000000000226e+03, 0.000000000000000000e+00, 1.000000000000000000e+00, 1.000000000000000000e+02
1.300000000000000000e+01, 4.306154000000000451e+03, 4.229743999999999687e+03, 4.126154000000000451e+03, 4.155385000000000218e+03, 4.336922999999999774e+03, 0.000000000000000000e+00, 1.000000000000000000e+00, 1.000000000000000000e+02
1.400000000000000000e+01, 4.323077000000000226e+03, 4.235896999999999935e+03, 4.133845999999999549e+03, 4.165640999999999622e+03, 4.356409999999999854e+03, 0.000000000000000000e+00, 1.000000000000000000e+00, 1.000000000000000000e+02
1.500000000000000000e+01, 4.324103000000000065e+03, 4.237948999999999614e+03, 4.125127999999999702e+03, 4.157948999999999614e+03, 4.352307999999999993e+03, 0.000000000000000000e+00, 1.000000000000000000e+00, 1.000000000000000000e+02
1.600000000000000000e+01, 4.305640999999999622e+03, 4.225640999999999622e+03, 4.103077000000000226e+03, 4.150256000000000313e+03, 4.334872000000000298e+03, 0.000000000000000000e+00, 1.000000000000000000e+00, 1.000000000000000000e+02
1.700000000000000000e+01, 4.283077000000000226e+03, 4.211282000000000153e+03, 4.095896999999999935e+03, 4.152307999999999993e+03, 4.318974000000000160e+03, 0.000000000000000000e+00, 1.000000000000000000e+00, 1.000000000000000000e+02
1.800000000000000000e+01, 4.278462000000000444e+03, 4.223590000000000146e+03, 4.111282000000000153e+03, 4.161025999999999840e+03, 4.309230999999999767e+03, 0.000000000000000000e+00, 1.000000000000000000e+00, 1.000000000000000000e+02
1.900000000000000000e+01, 4.283590000000000146e+03, 4.235896999999999935e+03, 4.124103000000000065e+03, 4.170256000000000313e+03, 4.313332999999999629e+03, 0.000000000000000000e+00, 1.000000000000000000e+00, 1.000000000000000000e+02
2.000000000000000000e+01, 4.282564000000000306e+03, 4.227692000000000007e+03, 4.111795000000000073e+03, 4.170256000000000313e+03, 4.321025999999999840e+03, 0.000000000000000000e+00, 1.000000000000000000e+00, 1.000000000000000000e+02
2.100000000000000000e+01, 4.275385000000000218e+03, 4.219487000000000080e+03, 4.107692000000000007e+03, 4.165640999999999622e+03, 4.314872000000000298e+03, 0.000000000000000000e+00, 1.000000000000000000e+00, 1.000000000000000000e+02
2.200000000000000000e+01, 4.274872000000000298e+03, 4.227692000000000007e+03, 4.129743999999999687e+03, 4.171795000000000073e+03, 4.311795000000000073e+03, 0.000000000000000000e+00, 1.000000000000000000e+00, 1.000000000000000000e+02
2.300000000000000000e+01, 4.281537999999999556e+03, 4.235896999999999935e+03, 4.143077000000000226e+03, 4.180000000000000000e+03, 4.324614999999999782e+03, 0.000000000000000000e+00, 1.000000000000000000e+00, 1.000000000000000000e+02
2.400000000000000000e+01, 4.283077000000000226e+03, 4.240000000000000000e+03, 4.144103000000000065e+03, 4.177435999999999694e+03, 4.330769000000000233e+03, 0.000000000000000000e+00, 1.000000000000000000e+00, 1.000000000000000000e+02
2.500000000000000000e+01, 4.282051000000000386e+03, 4.237948999999999614e+03, 4.148204999999999927e+03, 4.172820999999999913e+03, 4.322564000000000306e+03, 0.000000000000000000e+00, 1.000000000000000000e+00, 1.000000000000000000e+02
2.600000000000000000e+01, 4.288204999999999927e+03, 4.240000000000000000e+03, 4.145127999999999702e+03, 4.172307999999999993e+03, 4.323077000000000226e+03, 0.000000000000000000e+00, 1.000000000000000000e+00, 1.000000000000000000e+02
2.700000000000000000e+01, 4.291795000000000073e+03, 4.246154000000000451e+03, 4.137435999999999694e+03, 4.174872000000000298e+03, 4.327692000000000007e+03, 0.000000000000000000e+00, 1.000000000000000000e+00, 1.000000000000000000e+02
2.800000000000000000e+01, 4.283077000000000226e+03, 4.246154000000000451e+03, 4.133845999999999549e+03, 4.171282000000000153e+03, 4.322051000000000386e+03, 0.000000000000000000e+00, 1.000000000000000000e+00, 1.000000000000000000e+02
2.900000000000000000e+01, 4.276922999999999774e+03, 4.244103000000000065e+03, 4.129743999999999687e+03, 4.168717999999999847e+03, 4.313332999999999629e+03, 0.000000000000000000e+00, 1.000000000000000000e+00, 1.000000000000000000e+02
3.000000000000000000e+01, 4.274359000000000378e+03, 4.240000000000000000e+03, 4.123590000000000146e+03, 4.169230999999999767e+03, 4.301537999999999556e+03, 0.000000000000000000e+00, 1.000000000000000000e+00, 1.000000000000000000e+02
3.100000000000000000e+01, 4.271282000000000153e+03, 4.231795000000000073e+03, 4.124614999999999782e+03, 4.165127999999999702e+03, 4.291795000000000073e+03, 0.000000000000000000e+00, 1.000000000000000000e+00, 1.000000000000000000e+02
3.200000000000000000e+01, 4.277435999999999694e+03, 4.231795000000000073e+03, 4.129230999999999767e+03, 4.172820999999999913e+03, 4.296409999999999854e+03, 0.000000000000000000e+00, 1.000000000000000000e+00, 1.000000000000000000e+02
3.300000000000000000e+01, 4.281025999999999840e+03, 4.233845999999999549e+03, 4.126154000000000451e+03, 4.189230999999999767e+03, 4.295385000000000218e+03, 0.000000000000000000e+00, 1.000000000000000000e+00, 1.000000000000000000e+02
3.400000000000000000e+01, 4.276409999999999854e+03, 4.231795000000000073e+03, 4.124103000000000065e+03, 4.182051000000000386e+03, 4.284103000000000065e+03, 0.000000000000000000e+00, 1.000000000000000000e+00, 1.000000000000000000e+02
3.500000000000000000e+01, 4.283590000000000146e+03, 4.237948999999999614e+03, 4.134359000000000378e+03, 4.171795000000000073e+03, 4.288717999999999847e+03, 0.000000000000000000e+00, 1.000000000000000000e+00, 1.000000000000000000e+02
3.600000000000000000e+01, 4.295385000000000218e+03, 4.248204999999999927e+03, 4.145127999999999702e+03, 4.185127999999999702e+03, 4.297948999999999614e+03, 0.000000000000000000e+00, 1.000000000000000000e+00, 1.000000000000000000e+02
3.700000000000000000e+01, 4.294359000000000378e+03, 4.248204999999999927e+03, 4.143590000000000146e+03, 4.196922999999999774e+03, 4.300512999999999920e+03, 0.000000000000000000e+00, 1.000000000000000000e+00, 1.000000000000000000e+02
3.800000000000000000e+01, 4.292820999999999913e+03, 4.242051000000000386e+03, 4.133845999999999549e+03, 4.185127999999999702e+03, 4.302564000000000306e+03, 0.000000000000000000e+00, 1.000000000000000000e+00, 1.000000000000000000e+02
3.900000000000000000e+01, 4.291282000000000153e+03, 4.233845999999999549e+03, 4.122051000000000386e+03, 4.171282000000000153e+03, 4.301025999999999840e+03, 0.000000000000000000e+00, 1.000000000000000000e+00, 1.000000000000000000e+02
4.000000000000000000e+01, 4.283590000000000146e+03, 4.229743999999999687e+03, 4.119487000000000080e+03, 4.176409999999999854e+03, 4.293332999999999629e+03, 0.000000000000000000e+00, 1.000000000000000000e+00, 1.000000000000000000e+02
4.100000000000000000e+01, 4.278462000000000444e+03, 4.231795000000000073e+03, 4.125640999999999622e+03, 4.180000000000000000e+03, 4.288717999999999847e+03, 0.000000000000000000e+00, 1.000000000000000000e+00, 1.000000000000000000e+02
4.200000000000000000e+01, 4.281025999999999840e+03, 4.233845999999999549e+03, 4.122564000000000306e+03, 4.178974000000000160e+03, 4.288204999999999927e+03, 0.000000000000000000e+00, 1.000000000000000000e+00, 1.000000000000000000e+02
4.300000000000000000e+01, 4.282051000000000386e+03, 4.235896999999999935e+03, 4.118974000000000160e+03, 4.188717999999999847e+03, 4.289230999999999767e+03, 0.000000000000000000e+00, 1.000000000000000000e+00, 1.000000000000000000e+02
4.400000000000000000e+01, 4.282051000000000386e+03, 4.235896999999999935e+03, 4.128717999999999847e+03, 4.195896999999999935e+03, 4.294359000000000378e+03, 0.000000000000000000e+00, 1.000000000000000000e+00, 1.000000000000000000e+02
4.500000000000000000e+01, 4.284103000000000065e+03, 4.231795000000000073e+03, 4.131795000000000073e+03, 4.185640999999999622e+03, 4.293845999999999549e+03, 0.000000000000000000e+00, 1.000000000000000000e+00, 1.000000000000000000e+02
4.600000000000000000e+01, 4.290256000000000313e+03, 4.229743999999999687e+03, 4.129743999999999687e+03, 4.180512999999999920e+03, 4.296409999999999854e+03, 0.000000000000000000e+00, 1.000000000000000000e+00, 1.000000000000000000e+02
4.700000000000000000e+01, 4.292307999999999993e+03, 4.231795000000000073e+03, 4.134872000000000298e+03, 4.187692000000000007e+03, 4.302564000000000306e+03, 0.000000000000000000e+00, 1.000000000000000000e+00, 1.000000000000000000e+02
4.800000000000000000e+01, 4.284103000000000065e+03, 4.237948999999999614e+03, 4.137435999999999694e+03, 4.180512999999999920e+03, 4.290769000000000233e+03, 0.000000000000000000e+00, 1.000000000000000000e+00, 1.000000000000000000e+02
4.900000000000000000e+01, 4.286667000000000371e+03, 4.248204999999999927e+03, 4.143590000000000146e+03, 4.179487000000000080e+03, 4.282051000000000386e+03, 0.000000000000000000e+00, 1.000000000000000000e+00, 1.000000000000000000e+02
5.000000000000000000e+01, 4.300512999999999920e+03, 4.250256000000000313e+03, 4.153332999999999629e+03, 4.193332999999999629e+03, 4.293845999999999549e+03, 0.000000000000000000e+00, 1.000000000000000000e+00, 1.000000000000000000e+02
5.100000000000000000e+01, 4.295385000000000218e+03, 4.250256000000000313e+03, 4.148717999999999847e+03, 4.194872000000000298e+03, 4.296922999999999774e+03, 0.000000000000000000e+00, 1.000000000000000000e+00, 1.000000000000000000e+02
5.200000000000000000e+01, 4.280000000000000000e+03, 4.248204999999999927e+03, 4.134872000000000298e+03, 4.181025999999999840e+03, 4.281537999999999556e+03, 0.000000000000000000e+00, 1.000000000000000000e+00, 1.000000000000000000e+02
5.300000000000000000e+01, 4.275896999999999935e+03, 4.235896999999999935e+03, 4.130256000000000313e+03, 4.170256000000000313e+03, 4.270769000000000233e+03, 0.000000000000000000e+00, 1.000000000000000000e+00, 1.000000000000000000e+02
5.400000000000000000e+01, 4.280000000000000000e+03, 4.225640999999999622e+03, 4.128204999999999927e+03, 4.175896999999999935e+03, 4.271795000000000073e+03, 0.000000000000000000e+00, 1.000000000000000000e+00, 1.000000000000000000e+02
5.500000000000000000e+01, 4.284103000000000065e+03, 4.235896999999999935e+03, 4.121025999999999840e+03, 4.185127999999999702e+03, 4.273845999999999549e+03, 0.000000000000000000e+00, 1.000000000000000000e+00, 1.000000000000000000e+02
5.600000000000000000e+01, 4.285127999999999702e+03, 4.248204999999999927e+03, 4.121025999999999840e+03, 4.187179000000000087e+03, 4.272307999999999993e+03, 0.000000000000000000e+00, 1.000000000000000000e+00, 1.000000000000000000e+02
5.700000000000000000e+01, 4.281025999999999840e+03, 4.246154000000000451e+03, 4.126154000000000451e+03, 4.187179000000000087e+03, 4.272820999999999913e+03, 0.000000000000000000e+00, 1.000000000000000000e+00, 1.000000000000000000e+02
5.800000000000000000e+01, 4.279487000000000080e+03, 4.244103000000000065e+03, 4.126154000000000451e+03, 4.189743999999999687e+03, 4.274872000000000298e+03, 0.000000000000000000e+00, 1.000000000000000000e+00, 1.000000000000000000e+02
5.900000000000000000e+01, 4.276922999999999774e+03, 4.242051000000000386e+03, 4.122564000000000306e+03, 4.185640999999999622e+03, 4.266154000000000451e+03, 0.000000000000000000e+00, 1.000000000000000000e+00, 1.000000000000000000e+02
6.000000000000000000e+01, 4.271795000000000073e+03, 4.235896999999999935e+03, 4.125640999999999622e+03, 4.180512999999999920e+03, 4.256922999999999774e+03, 0.000000000000000000e+00, 1.000000000000000000e+00, 1.000000000000000000e+02
6.100000000000000000e+01, 4.276409999999999854e+03, 4.229743999999999687e+03, 4.136922999999999774e+03, 4.193332999999999629e+03, 4.270256000000000313e+03, 0.000000000000000000e+00, 1.000000000000000000e+00, 1.000000000000000000e+02
6.200000000000000000e+01, 4.284614999999999782e+03, 4.233845999999999549e+03, 4.139487000000000080e+03, 4.201025999999999840e+03, 4.281025999999999840e+03, 0.000000000000000000e+00, 1.000000000000000000e+00, 1.000000000000000000e+02
6.300000000000000000e+01, 4.282051000000000386e+03, 4.233845999999999549e+03, 4.135385000000000218e+03, 4.188717999999999847e+03, 4.267692000000000007e+03, 0.000000000000000000e+00, 1.000000000000000000e+00, 1.000000000000000000e+02
6.400000000000000000e+01, 4.276409999999999854e+03, 4.231795000000000073e+03, 4.136409999999999854e+03, 4.180000000000000000e+03, 4.257948999999999614e+03, 0.000000000000000000e+00, 1.000000000000000000e+00, 1.000000000000000000e+02
6.500000000000000000e+01, 4.278974000000000160e+03, 4.231795000000000073e+03, 4.135385000000000218e+03, 4.183077000000000226e+03, 4.264103000000000065e+03, 0.000000000000000000e+00, 1.000000000000000000e+00, 1.000000000000000000e+02
6.600000000000000000e+01, 4.279487000000000080e+03, 4.227692000000000007e+03, 4.128204999999999927e+03, 4.184614999999999782e+03, 4.266667000000000371e+03, 0.000000000000000000e+00, 1.000000000000000000e+00, 1.000000000000000000e+02
6.700000000000000000e+01, 4.274359000000000378e+03, 4.219487000000000080e+03, 4.121537999999999556e+03, 4.180512999999999920e+03, 4.262051000000000386e+03, 0.000000000000000000e+00, 1.000000000000000000e+00, 1.000000000000000000e+02
6.800000000000000000e+01, 4.261537999999999556e+03, 4.219487000000000080e+03, 4.124614999999999782e+03, 4.171795000000000073e+03, 4.250769000000000233e+03, 0.000000000000000000e+00, 1.000000000000000000e+00, 1.000000000000000000e+02
6.900000000000000000e+01, 4.252820999999999913e+03, 4.219487000000000080e+03, 4.128717999999999847e+03, 4.162564000000000306e+03, 4.238974000000000160e+03, 0.000000000000000000e+00, 1.000000000000000000e+00, 1.000000000000000000e+02
7.000000000000000000e+01, 4.258462000000000444e+03, 4.215385000000000218e+03, 4.124103000000000065e+03, 4.176409999999999854e+03, 4.243077000000000226e+03, 0.000000000000000000e+00, 1.000000000000000000e+00, 1.000000000000000000e+02
7.100000000000000000e+01, 4.255385000000000218e+03, 4.213332999999999629e+03, 4.121025999999999840e+03, 4.190256000000000313e+03, 4.244614999999999782e+03, 0.000000000000000000e+00, 1.000000000000000000e+00, 1.000000000000000000e+02
7.200000000000000000e+01, 4.240512999999999920e+03, 4.215385000000000218e+03, 4.124614999999999782e+03, 4.178974000000000160e+03, 4.234872000000000298e+03, 0.000000000000000000e+00, 1.000000000000000000e+00, 1.000000000000000000e+02
7.300000000000000000e+01, 4.229230999999999767e+03, 4.215385000000000218e+03, 4.121537999999999556e+03, 4.172820999999999913e+03, 4.226154000000000451e+03, 0.000000000000000000e+00, 1.000000000000000000e+00, 1.000000000000000000e+02
7.400000000000000000e+01, 4.224614999999999782e+03, 4.215385000000000218e+03, 4.118974000000000160e+03, 4.184103000000000065e+03, 4.220512999999999920e+03, 0.000000000000000000e+00, 1.000000000000000000e+00, 1.000000000000000000e+02
7.500000000000000000e+01, 4.223590000000000146e+03, 4.213332999999999629e+03, 4.120512999999999920e+03, 4.182564000000000306e+03, 4.222564000000000306e+03, 0.000000000000000000e+00, 1.000000000000000000e+00, 1.000000000000000000e+02
7.600000000000000000e+01, 4.227179000000000087e+03, 4.209230999999999767e+03, 4.110769000000000233e+03, 4.168717999999999847e+03, 4.228717999999999847e+03, 0.000000000000000000e+00, 1.000000000000000000e+00, 1.000000000000000000e+02
7.700000000000000000e+01, 4.233845999999999549e+03, 4.213332999999999629e+03, 4.110256000000000313e+03, 4.171795000000000073e+03, 4.231282000000000153e+03, 0.000000000000000000e+00, 1.000000000000000000e+00, 1.000000000000000000e+02
7.800000000000000000e+01, 4.237435999999999694e+03, 4.225640999999999622e+03, 4.122564000000000306e+03, 4.176922999999999774e+03, 4.232307999999999993e+03, 0.000000000000000000e+00, 1.000000000000000000e+00, 1.000000000000000000e+02
7.900000000000000000e+01, 4.236409999999999854e+03, 4.223590000000000146e+03, 4.121025999999999840e+03, 4.172307999999999993e+03, 4.231795000000000073e+03, 0.000000000000000000e+00, 1.000000000000000000e+00, 1.000000000000000000e+02
8.000000000000000000e+01, 4.230769000000000233e+03, 4.213332999999999629e+03, 4.116922999999999774e+03, 4.176409999999999854e+03, 4.222051000000000386e+03, 0.000000000000000000e+00, 1.000000000000000000e+00, 1.000000000000000000e+02
8.100000000000000000e+01, 4.229230999999999767e+03, 4.215385000000000218e+03, 4.122051000000000386e+03, 4.186154000000000451e+03, 4.216409999999999854e+03, 0.000000000000000000e+00, 1.000000000000000000e+00, 1.000000000000000000e+02
8.200000000000000000e+01, 4.230256000000000313e+03, 4.221537999999999556e+03, 4.123590000000000146e+03, 4.185127999999999702e+03, 4.221025999999999840e+03, 0.000000000000000000e+00, 1.000000000000000000e+00, 1.000000000000000000e+02
8.300000000000000000e+01, 4.224103000000000065e+03, 4.219487000000000080e+03, 4.122051000000000386e+03, 4.172307999999999993e+03, 4.215896999999999935e+03, 0.000000000000000000e+00, 1.000000000000000000e+00, 1.000000000000000000e+02
8.400000000000000000e+01, 4.216409999999999854e+03, 4.217435999999999694e+03, 4.124103000000000065e+03, 4.164103000000000065e+03, 4.201025999999999840e+03, 0.000000000000000000e+00, 1.000000000000000000e+00, 1.000000000000000000e+02
8.500000000000000000e+01, 4.209230999999999767e+03, 4.211282000000000153e+03, 4.117435999999999694e+03, 4.164103000000000065e+03, 4.191795000000000073e+03, 0.000000000000000000e+00, 1.000000000000000000e+00, 1.000000000000000000e+02
8.600000000000000000e+01, 4.213332999999999629e+03, 4.211282000000000153e+03, 4.115896999999999935e+03, 4.173332999999999629e+03, 4.194872000000000298e+03, 0.000000000000000000e+00, 1.000000000000000000e+00, 1.000000000000000000e+02
8.700000000000000000e+01, 4.231282000000000153e+03, 4.225640999999999622e+03, 4.134359000000000378e+03, 4.186667000000000371e+03, 4.210769000000000233e+03, 0.000000000000000000e+00, 1.000000000000000000e+00, 1.000000000000000000e+02
8.800000000000000000e+01, 4.236922999999999774e+03, 4.227692000000000007e+03, 4.137435999999999694e+03, 4.190256000000000313e+03, 4.228204999999999927e+03, 0.000000000000000000e+00, 1.000000000000000000e+00, 1.000000000000000000e+02
8.900000000000000000e+01, 4.232307999999999993e+03, 4.217435999999999694e+03, 4.116409999999999854e+03, 4.181025999999999840e+03, 4.235385000000000218e+03, 0.000000000000000000e+00, 1.000000000000000000e+00, 1.000000000000000000e+02
9.000000000000000000e+01, 4.241025999999999840e+03, 4.219487000000000080e+03, 4.111282000000000153e+03, 4.176922999999999774e+03, 4.233845999999999549e+03, 0.000000000000000000e+00, 1.000000000000000000e+00, 1.000000000000000000e+02
9.100000000000000000e+01, 4.248717999999999847e+03, 4.235896999999999935e+03, 4.126154000000000451e+03, 4.191795000000000073e+03, 4.232820999999999913e+03, 0.000000000000000000e+00, 1.000000000000000000e+00, 1.000000000000000000e+02
9.200000000000000000e+01, 4.239487000000000080e+03, 4.233845999999999549e+03, 4.130256000000000313e+03, 4.202051000000000386e+03, 4.229743999999999687e+03, 0.000000000000000000e+00, 1.000000000000000000e+00, 1.000000000000000000e+02
9.300000000000000000e+01, 4.231282000000000153e+03, 4.217435999999999694e+03, 4.122051000000000386e+03, 4.191282000000000153e+03, 4.221537999999999556e+03, 0.000000000000000000e+00, 1.000000000000000000e+00, 1.000000000000000000e+02
9.400000000000000000e+01, 4.234359000000000378e+03, 4.219487000000000080e+03, 4.127179000000000087e+03, 4.185640999999999622e+03, 4.217948999999999614e+03, 0.000000000000000000e+00, 1.000000000000000000e+00, 1.000000000000000000e+02
9.500000000000000000e+01, 4.235385000000000218e+03, 4.233845999999999549e+03, 4.140512999999999920e+03, 4.191795000000000073e+03, 4.217435999999999694e+03, 0.000000000000000000e+00, 1.000000000000000000e+00, 1.000000000000000000e+02
9.600000000000000000e+01, 4.232820999999999913e+03, 4.231795000000000073e+03, 4.137435999999999694e+03, 4.188204999999999927e+03, 4.214359000000000378e+03, 0.000000000000000000e+00, 1.000000000000000000e+00, 1.000000000000000000e+02
9.700000000000000000e+01, 4.233332999999999629e+03, 4.219487000000000080e+03, 4.126667000000000371e+03, 4.183590000000000146e+03, 4.213845999999999549e+03, 0.000000000000000000e+00, 1.000000000000000000e+00, 1.000000000000000000e+02
9.800000000000000000e+01, 4.233845999999999549e+03, 4.215385000000000218e+03, 4.130769000000000233e+03, 4.186667000000000371e+03, 4.216922999999999774e+03, 0.000000000000000000e+00, 1.000000000000000000e+00, 1.000000000000000000e+02
9.900000000000000000e+01, 4.232307999999999993e+03, 4.223590000000000146e+03, 4.137435999999999694e+03, 4.182051000000000386e+03, 4.212820999999999913e+03, 0.000000000000000000e+00, 1.000000000000000000e+00, 1.000000000000000000e+02
1.000000000000000000e+02, 4.234359000000000378e+03, 4.219487000000000080e+03, 4.127692000000000007e+03, 4.178974000000000160e+03, 4.204103000000000065e+03, 0.000000000000000000e+00, 1.000000000000000000e+00, 1.000000000000000000e+02
1.010000000000000000e+02, 4.230769000000000233e+03, 4.201025999999999840e+03, 4.111795000000000073e+03, 4.181025999999999840e+03, 4.202051000000000386e+03, 0.000000000000000000e+00, 1.000000000000000000e+00, 1.000000000000000000e+02
1.020000000000000000e+02, 4.221537999999999556e+03, 4.196922999999999774e+03, 4.101025999999999840e+03, 4.173845999999999549e+03, 4.203077000000000226e+03, 0.000000000000000000e+00, 1.000000000000000000e+00, 1.000000000000000000e+02
1.030000000000000000e+02, 4.216409999999999854e+03, 4.201025999999999840e+03, 4.101025999999999840e+03, 4.161025999999999840e+03, 4.200000000000000000e+03, 0.000000000000000000e+00, 1.000000000000000000e+00, 1.000000000000000000e+02
1.040000000000000000e+02, 4.216409999999999854e+03, 4.201025999999999840e+03, 4.113332999999999629e+03, 4.166667000000000371e+03, 4.193845999999999549e+03, 0.000000000000000000e+00, 1.000000000000000000e+00, 1.000000000000000000e+02
1.050000000000000000e+02, 4.225127999999999702e+03, 4.207179000000000087e+03, 4.125127999999999702e+03, 4.184614999999999782e+03, 4.198462000000000444e+03, 0.000000000000000000e+00, 1.000000000000000000e+00, 1.000000000000000000e+02
1.060000000000000000e+02, 4.235385000000000218e+03, 4.217435999999999694e+03, 4.123590000000000146e+03, 4.191795000000000073e+03, 4.204103000000000065e+03, 0.000000000000000000e+00, 1.000000000000000000e+00, 1.000000000000000000e+02
1.070000000000000000e+02, 4.229230999999999767e+03, 4.215385000000000218e+03, 4.120512999999999920e+03, 4.182051000000000386e+03, 4.195385000000000218e+03, 0.000000000000000000e+00, 1.000000000000000000e+00, 1.000000000000000000e+02
1.080000000000000000e+02, 4.218462000000000444e+03, 4.211282000000000153e+03, 4.123590000000000146e+03, 4.175896999999999935e+03, 4.190769000000000233e+03, 0.000000000000000000e+00, 1.000000000000000000e+00, 1.000000000000000000e+02
1.090000000000000000e+02, 4.224614999999999782e+03, 4.219487000000000080e+03, 4.127692000000000007e+03, 4.186667000000000371e+03, 4.197435999999999694e+03, 0.000000000000000000e+00, 1.000000000000000000e+00, 1.000000000000000000e+02
1.100000000000000000e+02, 4.237435999999999694e+03, 4.231795000000000073e+03, 4.131282000000000153e+03, 4.188204999999999927e+03, 4.198974000000000160e+03, 0.000000000000000000e+00, 1.000000000000000000e+00, 1.000000000000000000e+02
1.110000000000000000e+02, 4.231795000000000073e+03, 4.229743999999999687e+03, 4.123077000000000226e+03, 4.174359000000000378e+03, 4.188717999999999847e+03, 0.000000000000000000e+00, 1.000000000000000000e+00, 1.000000000000000000e+02
1.120000000000000000e+02, 4.217435999999999694e+03, 4.213332999999999629e+03, 4.102564000000000306e+03, 4.161025999999999840e+03, 4.176922999999999774e+03, 0.000000000000000000e+00, 1.000000000000000000e+00, 1.000000000000000000e+02
1.130000000000000000e+02, 4.214872000000000298e+03, 4.211282000000000153e+03, 4.090768999999999778e+03, 4.156409999999999854e+03, 4.176409999999999854e+03, 0.000000000000000000e+00, 1.000000000000000000e+00, 1.000000000000000000e+02
1.140000000000000000e+02, 4.217948999999999614e+03, 4.217435999999999694e+03, 4.090255999999999858e+03, 4.158462000000000444e+03, 4.179487000000000080e+03, 0.000000000000000000e+00, 1.000000000000000000e+00, 1.000000000000000000e+02
1.150000000000000000e+02, 4.209743999999999687e+03, 4.215385000000000218e+03, 4.089744000000000142e+03, 4.157435999999999694e+03, 4.173332999999999629e+03, 0.000000000000000000e+00, 1.000000000000000000e+00, 1.000000000000000000e+02
1.160000000000000000e+02, 4.198974000000000160e+03, 4.217435999999999694e+03, 4.090255999999999858e+03, 4.154872000000000298e+03, 4.165127999999999702e+03, 0.000000000000000000e+00, 1.000000000000000000e+00, 1.000000000000000000e+02
1.170000000000000000e+02, 4.200512999999999920e+03, 4.223590000000000146e+03, 4.103590000000000146e+03, 4.161537999999999556e+03, 4.168204999999999927e+03, 0.000000000000000000e+00, 1.000000000000000000e+00, 1.000000000000000000e+02
1.180000000000000000e+02, 4.205127999999999702e+03, 4.225640999999999622e+03, 4.114872000000000298e+03, 4.171282000000000153e+03, 4.174872000000000298e+03, 0.000000000000000000e+00, 1.000000000000000000e+00, 1.000000000000000000e+02
1.190000000000000000e+02, 4.200512999999999920e+03, 4.217435999999999694e+03, 4.105127999999999702e+03, 4.169743999999999687e+03, 4.170769000000000233e+03, 0.000000000000000000e+00, 1.000000000000000000e+00, 1.000000000000000000e+02
1.200000000000000000e+02, 4.197435999999999694e+03, 4.213332999999999629e+03, 4.104103000000000065e+03, 4.166667000000000371e+03, 4.169230999999999767e+03, 0.000000000000000000e+00, 1.000000000000000000e+00, 1.000000000000000000e+02
1.210000000000000000e+02, 4.208717999999999847e+03, 4.223590000000000146e+03, 4.128717999999999847e+03, 4.172307999999999993e+03, 4.181025999999999840e+03, 0.000000000000000000e+00, 1.000000000000000000e+00, 1.000000000000000000e+02
1.220000000000000000e+02, 4.221537999999999556e+03, 4.235896999999999935e+03, 4.146667000000000371e+03, 4.174359000000000378e+03, 4.187179000000000087e+03, 0.000000000000000000e+00, 1.000000000000000000e+00, 1.000000000000000000e+02
1.230000000000000000e+02, 4.219487000000000080e+03, 4.233845999999999549e+03, 4.139487000000000080e+03, 4.175896999999999935e+03, 4.185127999999999702e+03, 0.000000000000000000e+00, 1.000000000000000000e+00, 1.000000000000000000e+02
1.240000000000000000e+02, 4.216409999999999854e+03, 4.231795000000000073e+03, 4.130769000000000233e+03, 4.182051000000000386e+03, 4.193845999999999549e+03, 0.000000000000000000e+00, 1.000000000000000000e+00, 1.000000000000000000e+02
1.250000000000000000e+02, 4.217948999999999614e+03, 4.229743999999999687e+03, 4.123590000000000146e+03, 4.180000000000000000e+03, 4.201025999999999840e+03, 0.000000000000000000e+00, 1.000000000000000000e+00, 1.000000000000000000e+02
1.260000000000000000e+02, 4.215896999999999935e+03, 4.215385000000000218e+03, 4.104103000000000065e+03, 4.170256000000000313e+03, 4.193845999999999549e+03, 0.000000000000000000e+00, 1.000000000000000000e+00, 1.000000000000000000e+02
1.270000000000000000e+02, 4.218462000000000444e+03, 4.211282000000000153e+03, 4.090255999999999858e+03, 4.172820999999999913e+03, 4.191282000000000153e+03, 0.000000000000000000e+00, 1.000000000000000000e+00, 1.000000000000000000e+02
0.000000000000000000e+00, 4.213845999999999549e+03, 4.217435999999999694e+03, 4.085641000000000076e+03, 4.177435999999999694e+03, 4.193332999999999629e+03, 0.000000000000000000e+00, 1.000000000000000000e+00, 1.000000000000000000e+02
1.000000000000000000e+00, 4.200512999999999920e+03, 4.215385000000000218e+03, 4.086666999999999916e+03, 4.167179000000000087e+03, 4.183590000000000146e+03, 0.000000000000000000e+00, 1.000000000000000000e+00, 1.000000000000000000e+02
2.000000000000000000e+00, 4.207179000000000087e+03, 4.219487000000000080e+03, 4.110256000000000313e+03, 4.175385000000000218e+03, 4.176922999999999774e+03, 0.000000000000000000e+00, 1.000000000000000000e+00, 1.000000000000000000e+02
3.000000000000000000e+00, 4.221537999999999556e+03, 4.233845999999999549e+03, 4.134872000000000298e+03, 4.199487000000000080e+03, 4.183590000000000146e+03, 0.000000000000000000e+00, 1.000000000000000000e+00, 1.000000000000000000e+02
4.000000000000000000e+00, 4.216409999999999854e+03, 4.229743999999999687e+03, 4.131282000000000153e+03, 4.193845999999999549e+03, 4.181537999999999556e+03, 0.000000000000000000e+00, 1.000000000000000000e+00, 1.000000000000000000e+02
5.000000000000000000e+00, 4.209230999999999767e+03, 4.219487000000000080e+03, 4.129230999999999767e+03, 4.182051000000000386e+03, 4.175385000000000218e+03, 0.000000000000000000e+00, 1.000000000000000000e+00, 1.000000000000000000e+02
6.000000000000000000e+00, 4.214872000000000298e+03, 4.227692000000000007e+03, 4.140512999999999920e+03, 4.186154000000000451e+03, 4.178462000000000444e+03, 0.000000000000000000e+00, 1.000000000000000000e+00, 1.000000000000000000e+02
7.000000000000000000e+00, 4.218974000000000160e+03, 4.223590000000000146e+03, 4.144614999999999782e+03, 4.187179000000000087e+03, 4.186667000000000371e+03, 0.000000000000000000e+00, 1.000000000000000000e+00, 1.000000000000000000e+02
8.000000000000000000e+00, 4.224103000000000065e+03, 4.213332999999999629e+03, 4.145640999999999622e+03, 4.186154000000000451e+03, 4.195385000000000218e+03, 0.000000000000000000e+00, 1.000000000000000000e+00, 1.000000000000000000e+02
9.000000000000000000e+00, 4.236409999999999854e+03, 4.223590000000000146e+03, 4.148204999999999927e+03, 4.196409999999999854e+03, 4.197948999999999614e+03, 0.000000000000000000e+00, 1.000000000000000000e+00, 1.000000000000000000e+02
1.000000000000000000e+01, 4.237948999999999614e+03, 4.233845999999999549e+03, 4.131795000000000073e+03, 4.191282000000000153e+03, 4.193845999999999549e+03, 0.000000000000000000e+00, 1.000000000000000000e+00, 1.000000000000000000e+02
1.100000000000000000e+01, 4.224614999999999782e+03, 4.209230999999999767e+03, 4.104614999999999782e+03, 4.161025999999999840e+03, 4.187179000000000087e+03, 0.000000000000000000e+00, 1.000000000000000000e+00, 1.000000000000000000e+02
1.200000000000000000e+01, 4.217435999999999694e+03, 4.194872000000000298e+03, 4.091795000000000073e+03, 4.155385000000000218e+03, 4.182051000000000386e+03, 0.000000000000000000e+00, 1.000000000000000000e+00, 1.000000000000000000e+02
1.300000000000000000e+01, 4.216409999999999854e+03, 4.209230999999999767e+03, 4.090255999999999858e+03, 4.176922999999999774e+03, 4.176922999999999774e+03, 0.000000000000000000e+00, 1.000000000000000000e+00, 1.000000000000000000e+02
1.400000000000000000e+01, 4.205640999999999622e+03, 4.211282000000000153e+03, 4.099487000000000080e+03, 4.182564000000000306e+03, 4.167179000000000087e+03, 0.000000000000000000e+00, 1.000000000000000000e+00, 1.000000000000000000e+02
1.500000000000000000e+01, 4.197435999999999694e+03, 4.207179000000000087e+03, 4.108204999999999927e+03, 4.165127999999999702e+03, 4.158974000000000160e+03, 0.000000000000000000e+00, 1.000000000000000000e+00, 1.000000000000000000e+02
1.600000000000000000e+01, 4.206154000000000451e+03, 4.211282000000000153e+03, 4.115896999999999935e+03, 4.163077000000000226e+03, 4.163590000000000146e+03, 0.000000000000000000e+00, 1.000000000000000000e+00, 1.000000000000000000e+02
1.700000000000000000e+01, 4.218974000000000160e+03, 4.217435999999999694e+03, 4.136922999999999774e+03, 4.183077000000000226e+03, 4.177435999999999694e+03, 0.000000000000000000e+00, 1.000000000000000000e+00, 1.000000000000000000e+02
1.800000000000000000e+01, 4.215896999999999935e+03, 4.217435999999999694e+03, 4.139487000000000080e+03, 4.183590000000000146e+03, 4.175896999999999935e+03, 0.000000000000000000e+00, 1.000000000000000000e+00, 1.000000000000000000e+02
1.900000000000000000e+01, 4.206667000000000371e+03, 4.219487000000000080e+03, 4.115896999999999935e+03, 4.170256000000000313e+03, 4.163590000000000146e+03, 0.000000000000000000e+00, 1.000000000000000000e+00, 1.000000000000000000e+02
2.000000000000000000e+01, 4.201537999999999556e+03, 4.219487000000000080e+03, 4.111282000000000153e+03, 4.163590000000000146e+03, 4.157948999999999614e+03, 0.000000000000000000e+00, 1.000000000000000000e+00, 1.000000000000000000e+02
2.100000000000000000e+01, 4.202051000000000386e+03, 4.213332999999999629e+03, 4.121025999999999840e+03, 4.162564000000000306e+03, 4.151795000000000073e+03, 0.000000000000000000e+00, 1.000000000000000000e+00, 1.000000000000000000e+02
2.200000000000000000e+01, 4.201025999999999840e+03, 4.207179000000000087e+03, 4.109230999999999767e+03, 4.155896999999999935e+03, 4.149743999999999687e+03, 0.000000000000000000e+00, 1.000000000000000000e+00, 1.000000000000000000e+02
2.300000000000000000e+01, 4.201025999999999840e+03, 4.201025999999999840e+03, 4.098462000000000444e+03, 4.148204999999999927e+03, 4.159487000000000080e+03, 0.000000000000000000e+00, 1.000000000000000000e+00, 1.000000000000000000e+02
2.400000000000000000e+01, 4.208717999999999847e+03, 4.203077000000000226e+03, 4.105640999999999622e+03, 4.157948999999999614e+03, 4.172820999999999913e+03, 0.000000000000000000e+00, 1.000000000000000000e+00, 1.000000000000000000e+02
2.500000000000000000e+01, 4.211795000000000073e+03, 4.196922999999999774e+03, 4.098462000000000444e+03, 4.171795000000000073e+03, 4.169743999999999687e+03, 0.000000000000000000e+00, 1.000000000000000000e+00, 1.000000000000000000e+02
2.600000000000000000e+01, 4.201537999999999556e+03, 4.184614999999999782e+03, 4.079487000000000080e+03, 4.166667000000000371e+03, 4.155385000000000218e+03, 0.000000000000000000e+00, 1.000000000000000000e+00, 1.000000000000000000e+02
2.700000000000000000e+01, 4.196922999999999774e+03, 4.190769000000000233e+03, 4.085128000000000156e+03, 4.153332999999999629e+03, 4.157435999999999694e+03, 0.000000000000000000e+00, 1.000000000000000000e+00, 1.000000000000000000e+02
2.800000000000000000e+01, 4.209743999999999687e+03, 4.203077000000000226e+03, 4.109743999999999687e+03, 4.161025999999999840e+03, 4.169743999999999687e+03, 0.000000000000000000e+00, 1.000000000000000000e+00, 1.000000000000000000e+02
2.900000000000000000e+01, 4.214359000000000378e+03, 4.205127999999999702e+03, 4.122051000000000386e+03, 4.178974000000000160e+03, 4.170256000000000313e+03, 0.000000000000000000e+00, 1.000000000000000000e+00, 1.000000000000000000e+02
3.000000000000000000e+01, 4.209230999999999767e+03, 4.205127999999999702e+03, 4.125127999999999702e+03, 4.183590000000000146e+03, 4.167692000000000007e+03, 0.000000000000000000e+00, 1.000000000000000000e+00, 1.000000000000000000e+02
3.100000000000000000e+01, 4.214872000000000298e+03, 4.205127999999999702e+03, 4.133332999999999629e+03, 4.186154000000000451e+03, 4.171282000000000153e+03, 0.000000000000000000e+00, 1.000000000000000000e+00, 1.000000000000000000e+02
3.200000000000000000e+01, 4.225640999999999622e+03, 4.207179000000000087e+03, 4.140000000000000000e+03, 4.182564000000000306e+03, 4.172307999999999993e+03, 0.000000000000000000e+00, 1.000000000000000000e+00, 1.000000000000000000e+02
3.300000000000000000e+01, 4.242051000000000386e+03, 4.213332999999999629e+03, 4.142051000000000386e+03, 4.173332999999999629e+03, 4.183590000000000146e+03, 0.000000000000000000e+00, 1.000000000000000000e+00, 1.000000000000000000e+02
3.400000000000000000e+01, 4.267179000000000087e+03, 4.215385000000000218e+03, 4.143077000000000226e+03, 4.172307999999999993e+03, 4.206154000000000451e+03, 0.000000000000000000e+00, 1.000000000000000000e+00, 1.000000000000000000e+02
3.500000000000000000e+01, 4.285127999999999702e+03, 4.211282000000000153e+03, 4.142051000000000386e+03, 4.173845999999999549e+03, 4.213332999999999629e+03, 0.000000000000000000e+00, 1.000000000000000000e+00, 1.000000000000000000e+02
3.600000000000000000e+01, 4.286667000000000371e+03, 4.205127999999999702e+03, 4.132820999999999913e+03, 4.166154000000000451e+03, 4.206154000000000451e+03, 0.000000000000000000e+00, 1.000000000000000000e+00, 1.000000000000000000e+02
3.700000000000000000e+01, 4.285127999999999702e+03, 4.201025999999999840e+03, 4.125127999999999702e+03, 4.158974000000000160e+03, 4.203077000000000226e+03, 0.000000000000000000e+00, 1.000000000000000000e+00, 1.000000000000000000e+02
3.800000000000000000e+01, 4.281537999999999556e+03, 4.201025999999999840e+03, 4.121537999999999556e+03, 4.167692000000000007e+03, 4.204614999999999782e+03, 0.000000000000000000e+00, 1.000000000000000000e+00, 1.000000000000000000e+02
3.900000000000000000e+01, 4.266667000000000371e+03, 4.201025999999999840e+03, 4.113332999999999629e+03, 4.170769000000000233e+03, 4.198462000000000444e+03, 0.000000000000000000e+00, 1.000000000000000000e+00, 1.000000000000000000e+02
4.000000000000000000e+01, 4.250256000000000313e+03, 4.194872000000000298e+03, 4.113332999999999629e+03, 4.158462000000000444e+03, 4.181025999999999840e+03, 0.000000000000000000e+00, 1.000000000000000000e+00, 1.000000000000000000e+02
4.100000000000000000e+01, 4.245640999999999622e+03, 4.201025999999999840e+03, 4.128204999999999927e+03, 4.160000000000000000e+03, 4.173332999999999629e+03, 0.000000000000000000e+00, 1.000000000000000000e+00, 1.000000000000000000e+02
4.200000000000000000e+01, 4.250256000000000313e+03, 4.213332999999999629e+03, 4.142564000000000306e+03, 4.175385000000000218e+03, 4.183590000000000146e+03, 0.000000000000000000e+00, 1.000000000000000000e+00, 1.000000000000000000e+02
4.300000000000000000e+01, 4.251282000000000153e+03, 4.209230999999999767e+03, 4.148717999999999847e+03, 4.168717999999999847e+03, 4.187692000000000007e+03, 0.000000000000000000e+00, 1.000000000000000000e+00, 1.000000000000000000e+02
4.400000000000000000e+01, 4.246667000000000371e+03, 4.196922999999999774e+03, 4.155385000000000218e+03, 4.158974000000000160e+03, 4.180512999999999920e+03, 0.000000000000000000e+00, 1.000000000000000000e+00, 1.000000000000000000e+02
4.500000000000000000e+01, 4.247692000000000007e+03, 4.198974000000000160e+03, 4.158462000000000444e+03, 4.169230999999999767e+03, 4.181025999999999840e+03, 0.000000000000000000e+00, 1.000000000000000000e+00, 1.000000000000000000e+02
4.600000000000000000e+01, 4.251282000000000153e+03, 4.207179000000000087e+03, 4.154359000000000378e+03, 4.166667000000000371e+03, 4.185127999999999702e+03, 0.000000000000000000e+00, 1.000000000000000000e+00, 1.000000000000000000e+02
4.700000000000000000e+01, 4.251795000000000073e+03, 4.211282000000000153e+03, 4.152307999999999993e+03, 4.151282000000000153e+03, 4.186154000000000451e+03, 0.000000000000000000e+00, 1.000000000000000000e+00, 1.000000000000000000e+02
4.800000000000000000e+01, 4.250769000000000233e+03, 4.207179000000000087e+03, 4.144103000000000065e+03, 4.151795000000000073e+03, 4.183590000000000146e+03, 0.000000000000000000e+00, 1.000000000000000000e+00, 1.000000000000000000e+02
4.900000000000000000e+01, 4.249230999999999767e+03, 4.201025999999999840e+03, 4.120512999999999920e+03, 4.150769000000000233e+03, 4.173332999999999629e+03, 0.000000000000000000e+00, 1.000000000000000000e+00, 1.000000000000000000e+02
5.000000000000000000e+01, 4.245127999999999702e+03, 4.196922999999999774e+03, 4.101537999999999556e+03, 4.141025999999999840e+03, 4.167179000000000087e+03, 0.000000000000000000e+00, 1.000000000000000000e+00, 1.000000000000000000e+02
5.100000000000000000e+01, 4.237948999999999614e+03, 4.186667000000000371e+03, 4.097948999999999614e+03, 4.138462000000000444e+03, 4.170256000000000313e+03, 0.000000000000000000e+00, 1.000000000000000000e+00, 1.000000000000000000e+02
5.200000000000000000e+01, 4.233332999999999629e+03, 4.186667000000000371e+03, 4.102564000000000306e+03, 4.139487000000000080e+03, 4.165127999999999702e+03, 0.000000000000000000e+00, 1.000000000000000000e+00, 1.000000000000000000e+02
5.300000000000000000e+01, 4.233845999999999549e+03, 4.198974000000000160e+03, 4.111795000000000073e+03, 4.144103000000000065e+03, 4.152820999999999913e+03, 0.000000000000000000e+00, 1.000000000000000000e+00, 1.000000000000000000e+02
5.400000000000000000e+01, 4.237948999999999614e+03, 4.201025999999999840e+03, 4.120000000000000000e+03, 4.153845999999999549e+03, 4.154359000000000378e+03, 0.000000000000000000e+00, 1.000000000000000000e+00, 1.000000000000000000e+02
5.500000000000000000e+01, 4.241025999999999840e+03, 4.194872000000000298e+03, 4.124103000000000065e+03, 4.159487000000000080e+03, 4.164103000000000065e+03, 0.000000000000000000e+00, 0.000000000000000000e+00, 1.000000000000000000e+02
5.600000000000000000e+01, 4.241537999999999556e+03, 4.194872000000000298e+03, 4.130769000000000233e+03, 4.156409999999999854e+03, 4.167692000000000007e+03, 0.000000000000000000e+00, 0.000000000000000000e+00, 1.000000000000000000e+02
5.700000000000000000e+01, 4.235385000000000218e+03, 4.198974000000000160e+03, 4.137948999999999614e+03, 4.151282000000000153e+03, 4.164103000000000065e+03, 0.000000000000000000e+00, 0.000000000000000000e+00, 1.000000000000000000e+02
5.800000000000000000e+01, 4.232307999999999993e+03, 4.201025999999999840e+03, 4.141537999999999556e+03, 4.156922999999999774e+03, 4.162564000000000306e+03, 0.000000000000000000e+00, 0.000000000000000000e+00, 1.000000000000000000e+02
5.900000000000000000e+01, 4.244103000000000065e+03, 4.213332999999999629e+03, 4.144103000000000065e+03, 4.170256000000000313e+03, 4.171795000000000073e+03, 0.000000000000000000e+00, 0.000000000000000000e+00, 1.000000000000000000e+02
