COUNTER, AF3, T7, Pz, T8, AF4, MARKERS['YES','NO'], TICK, ContactQuality
9.000000000000000000e+00, 3.510768999999999778e+03, 4.108717999999999847e+03, 4.111795000000000073e+03, 4.162051000000000386e+03, 3.056409999999999854e+03, 0.000000000000000000e+00, 0.000000000000000000e+00, 1.000000000000000000e+02
1.000000000000000000e+01, 3.491282000000000153e+03, 4.090255999999999858e+03, 4.123590000000000146e+03, 4.162051000000000386e+03, 3.020000000000000000e+03, 0.000000000000000000e+00, 0.000000000000000000e+00, 1.000000000000000000e+02
1.100000000000000000e+01, 3.470768999999999778e+03, 4.098462000000000444e+03, 4.124103000000000065e+03, 4.170256000000000313e+03, 2.987692000000000007e+03, 0.000000000000000000e+00, 0.000000000000000000e+00, 1.000000000000000000e+02
1.200000000000000000e+01, 3.439487000000000080e+03, 4.118974000000000160e+03, 4.115385000000000218e+03, 4.178462000000000444e+03, 2.953846000000000004e+03, 0.000000000000000000e+00, 0.000000000000000000e+00, 1.000000000000000000e+02
1.300000000000000000e+01, 3.412820999999999913e+03, 4.114872000000000298e+03, 4.107179000000000087e+03, 4.168717999999999847e+03, 2.911795000000000073e+03, 0.000000000000000000e+00, 0.000000000000000000e+00, 1.000000000000000000e+02
1.400000000000000000e+01, 3.399487000000000080e+03, 4.114872000000000298e+03, 4.110256000000000313e+03, 4.162051000000000386e+03, 2.873846000000000004e+03, 0.000000000000000000e+00, 0.000000000000000000e+00, 1.000000000000000000e+02
1.500000000000000000e+01, 3.390255999999999858e+03, 4.129230999999999767e+03, 4.124614999999999782e+03, 4.167692000000000007e+03, 2.852820999999999913e+03, 0.000000000000000000e+00, 0.000000000000000000e+00, 1.000000000000000000e+02
1.600000000000000000e+01, 3.372307999999999993e+03, 4.127179000000000087e+03, 4.125127999999999702e+03, 4.169230999999999767e+03, 2.816409999999999854e+03, 0.000000000000000000e+00, 0.000000000000000000e+00, 1.000000000000000000e+02
1.700000000000000000e+01, 3.352820999999999913e+03, 4.116922999999999774e+03, 4.116409999999999854e+03, 4.170769000000000233e+03, 2.770768999999999778e+03, 0.000000000000000000e+00, 0.000000000000000000e+00, 1.000000000000000000e+02
1.800000000000000000e+01, 3.338974000000000160e+03, 4.114872000000000298e+03, 4.119487000000000080e+03, 4.179487000000000080e+03, 2.742563999999999851e+03, 0.000000000000000000e+00, 0.000000000000000000e+00, 1.000000000000000000e+02
1.900000000000000000e+01, 3.327179000000000087e+03, 4.116922999999999774e+03, 4.123077000000000226e+03, 4.180000000000000000e+03, 2.711282000000000153e+03, 0.000000000000000000e+00, 0.000000000000000000e+00, 1.000000000000000000e+02
2.000000000000000000e+01, 3.315896999999999935e+03, 4.121025999999999840e+03, 4.118462000000000444e+03, 4.174359000000000378e+03, 2.669744000000000142e+03, 0.000000000000000000e+00, 0.000000000000000000e+00, 1.000000000000000000e+02
2.100000000000000000e+01, 3.290255999999999858e+03, 4.118974000000000160e+03, 4.115896999999999935e+03, 4.172820999999999913e+03, 2.636922999999999774e+03, 0.000000000000000000e+00, 0.000000000000000000e+00, 1.000000000000000000e+02
2.200000000000000000e+01, 3.264103000000000065e+03, 4.106667000000000371e+03, 4.124614999999999782e+03, 4.167179000000000087e+03, 2.613333000000000084e+03, 0.000000000000000000e+00, 0.000000000000000000e+00, 1.000000000000000000e+02
2.300000000000000000e+01, 3.249231000000000222e+03, 4.104614999999999782e+03, 4.124103000000000065e+03, 4.156409999999999854e+03, 2.576922999999999774e+03, 0.000000000000000000e+00, 0.000000000000000000e+00, 1.000000000000000000e+02
2.400000000000000000e+01, 3.227692000000000007e+03, 4.108717999999999847e+03, 4.117435999999999694e+03, 4.155385000000000218e+03, 2.535896999999999935e+03, 0.000000000000000000e+00, 0.000000000000000000e+00, 1.000000000000000000e+02
2.500000000000000000e+01, 3.192307999999999993e+03, 4.100512999999999920e+03, 4.128717999999999847e+03, 4.170256000000000313e+03, 2.512307999999999993e+03, 0.000000000000000000e+00, 0.000000000000000000e+00, 1.000000000000000000e+02
2.600000000000000000e+01, 3.142050999999999931e+03, 4.094358999999999924e+03, 4.122564000000000306e+03, 4.169230999999999767e+03, 2.469231000000000222e+03, 0.000000000000000000e+00, 0.000000000000000000e+00, 1.000000000000000000e+02
2.700000000000000000e+01, 3.097436000000000149e+03, 4.090255999999999858e+03, 4.091282000000000153e+03, 4.148204999999999927e+03, 2.408717999999999847e+03, 0.000000000000000000e+00, 0.000000000000000000e+00, 1.000000000000000000e+02
2.800000000000000000e+01, 3.077436000000000149e+03, 4.090255999999999858e+03, 4.083077000000000226e+03, 4.143077000000000226e+03, 2.369231000000000222e+03, 0.000000000000000000e+00, 0.000000000000000000e+00, 1.000000000000000000e+02
2.900000000000000000e+01, 3.058974000000000160e+03, 4.098462000000000444e+03, 4.092820999999999913e+03, 4.150769000000000233e+03, 2.344103000000000065e+03, 0.000000000000000000e+00, 0.000000000000000000e+00, 1.000000000000000000e+02
3.000000000000000000e+01, 3.032820999999999913e+03, 4.106667000000000371e+03, 4.094871999999999844e+03, 4.154872000000000298e+03, 2.323590000000000146e+03, 0.000000000000000000e+00, 0.000000000000000000e+00, 1.000000000000000000e+02
3.100000000000000000e+01, 3.010255999999999858e+03, 4.108717999999999847e+03, 4.100000000000000000e+03, 4.156922999999999774e+03, 2.308204999999999927e+03, 0.000000000000000000e+00, 0.000000000000000000e+00, 1.000000000000000000e+02
3.200000000000000000e+01, 2.988204999999999927e+03, 4.102564000000000306e+03, 4.112307999999999993e+03, 4.157948999999999614e+03, 2.298974000000000160e+03, 0.000000000000000000e+00, 0.000000000000000000e+00, 1.000000000000000000e+02
3.300000000000000000e+01, 2.965128000000000156e+03, 4.096409999999999854e+03, 4.116409999999999854e+03, 4.148717999999999847e+03, 2.280512999999999920e+03, 0.000000000000000000e+00, 0.000000000000000000e+00, 1.000000000000000000e+02
3.400000000000000000e+01, 2.940512999999999920e+03, 4.098462000000000444e+03, 4.113332999999999629e+03, 4.144614999999999782e+03, 2.242563999999999851e+03, 0.000000000000000000e+00, 0.000000000000000000e+00, 1.000000000000000000e+02
3.500000000000000000e+01, 2.913333000000000084e+03, 4.098462000000000444e+03, 4.108717999999999847e+03, 4.164103000000000065e+03, 2.207692000000000007e+03, 0.000000000000000000e+00, 0.000000000000000000e+00, 1.000000000000000000e+02
3.600000000000000000e+01, 2.881538000000000011e+03, 4.098462000000000444e+03, 4.102564000000000306e+03, 4.168717999999999847e+03, 2.172307999999999993e+03, 0.000000000000000000e+00, 0.000000000000000000e+00, 1.000000000000000000e+02
3.700000000000000000e+01, 2.856922999999999774e+03, 4.100512999999999920e+03, 4.107692000000000007e+03, 4.150769000000000233e+03, 2.135385000000000218e+03, 0.000000000000000000e+00, 0.000000000000000000e+00, 1.000000000000000000e+02
3.800000000000000000e+01, 2.836922999999999774e+03, 4.100512999999999920e+03, 4.112307999999999993e+03, 4.148717999999999847e+03, 2.101538000000000011e+03, 0.000000000000000000e+00, 0.000000000000000000e+00, 1.000000000000000000e+02
3.900000000000000000e+01, 2.813333000000000084e+03, 4.102564000000000306e+03, 4.105127999999999702e+03, 4.161537999999999556e+03, 2.062050999999999931e+03, 0.000000000000000000e+00, 0.000000000000000000e+00, 1.000000000000000000e+02
4.000000000000000000e+01, 2.801538000000000011e+03, 4.106667000000000371e+03, 4.108204999999999927e+03, 4.165127999999999702e+03, 2.026666999999999916e+03, 0.000000000000000000e+00, 0.000000000000000000e+00, 1.000000000000000000e+02
4.100000000000000000e+01, 2.788717999999999847e+03, 4.110769000000000233e+03, 4.109743999999999687e+03, 4.160512999999999920e+03, 1.997435999999999922e+03, 0.000000000000000000e+00, 0.000000000000000000e+00, 1.000000000000000000e+02
4.200000000000000000e+01, 2.766666999999999916e+03, 4.110769000000000233e+03, 4.101537999999999556e+03, 4.152820999999999913e+03, 1.962050999999999931e+03, 0.000000000000000000e+00, 0.000000000000000000e+00, 1.000000000000000000e+02
4.300000000000000000e+01, 2.758974000000000160e+03, 4.112820999999999913e+03, 4.105127999999999702e+03, 4.148204999999999927e+03, 1.915384999999999991e+03, 0.000000000000000000e+00, 0.000000000000000000e+00, 1.000000000000000000e+02
4.400000000000000000e+01, 2.753846000000000004e+03, 4.106667000000000371e+03, 4.107692000000000007e+03, 4.143590000000000146e+03, 1.865127999999999929e+03, 0.000000000000000000e+00, 0.000000000000000000e+00, 1.000000000000000000e+02
4.500000000000000000e+01, 2.740000000000000000e+03, 4.102564000000000306e+03, 4.102564000000000306e+03, 4.141025999999999840e+03, 1.829743999999999915e+03, 0.000000000000000000e+00, 0.000000000000000000e+00, 1.000000000000000000e+02
4.600000000000000000e+01, 2.730255999999999858e+03, 4.110769000000000233e+03, 4.103077000000000226e+03, 4.144103000000000065e+03, 1.800000000000000000e+03, 0.000000000000000000e+00, 0.000000000000000000e+00, 1.000000000000000000e+02
4.700000000000000000e+01, 2.724103000000000065e+03, 4.106667000000000371e+03, 4.103077000000000226e+03, 4.139487000000000080e+03, 1.772307999999999993e+03, 0.000000000000000000e+00, 0.000000000000000000e+00, 1.000000000000000000e+02
4.800000000000000000e+01, 2.722050999999999931e+03, 4.100512999999999920e+03, 4.098462000000000444e+03, 4.139487000000000080e+03, 1.761026000000000067e+03, 0.000000000000000000e+00, 0.000000000000000000e+00, 1.000000000000000000e+02
4.900000000000000000e+01, 2.724614999999999782e+03, 4.112820999999999913e+03, 4.093333000000000084e+03, 4.156409999999999854e+03, 1.746666999999999916e+03, 0.000000000000000000e+00, 0.000000000000000000e+00, 1.000000000000000000e+02
5.000000000000000000e+01, 2.725641000000000076e+03, 4.125127999999999702e+03, 4.098974000000000160e+03, 4.153845999999999549e+03, 1.715384999999999991e+03, 0.000000000000000000e+00, 0.000000000000000000e+00, 1.000000000000000000e+02
5.100000000000000000e+01, 2.715896999999999935e+03, 4.114872000000000298e+03, 4.104103000000000065e+03, 4.132820999999999913e+03, 1.669230999999999995e+03, 0.000000000000000000e+00, 0.000000000000000000e+00, 1.000000000000000000e+02
5.200000000000000000e+01, 2.689231000000000222e+03, 4.096409999999999854e+03, 4.093333000000000084e+03, 4.129230999999999767e+03, 1.614872000000000071e+03, 0.000000000000000000e+00, 0.000000000000000000e+00, 1.000000000000000000e+02
5.300000000000000000e+01, 2.659487000000000080e+03, 4.090255999999999858e+03, 4.091282000000000153e+03, 4.136922999999999774e+03, 1.581026000000000067e+03, 0.000000000000000000e+00, 0.000000000000000000e+00, 1.000000000000000000e+02
5.400000000000000000e+01, 2.643590000000000146e+03, 4.090255999999999858e+03, 4.105640999999999622e+03, 4.138974000000000160e+03, 1.567692000000000007e+03, 0.000000000000000000e+00, 0.000000000000000000e+00, 1.000000000000000000e+02
5.500000000000000000e+01, 2.638461999999999989e+03, 4.096409999999999854e+03, 4.115896999999999935e+03, 4.143590000000000146e+03, 1.556923000000000002e+03, 0.000000000000000000e+00, 0.000000000000000000e+00, 1.000000000000000000e+02
5.600000000000000000e+01, 2.636922999999999774e+03, 4.098462000000000444e+03, 4.118462000000000444e+03, 4.151795000000000073e+03, 1.542564000000000078e+03, 0.000000000000000000e+00, 0.000000000000000000e+00, 1.000000000000000000e+02
5.700000000000000000e+01, 2.645641000000000076e+03, 4.092307999999999993e+03, 4.118462000000000444e+03, 4.157435999999999694e+03, 1.532820999999999913e+03, 0.000000000000000000e+00, 0.000000000000000000e+00, 1.000000000000000000e+02
5.800000000000000000e+01, 2.653846000000000004e+03, 4.084103000000000065e+03, 4.117435999999999694e+03, 4.154872000000000298e+03, 1.528204999999999927e+03, 0.000000000000000000e+00, 0.000000000000000000e+00, 1.000000000000000000e+02
5.900000000000000000e+01, 2.640000000000000000e+03, 4.075896999999999935e+03, 4.107179000000000087e+03, 4.142051000000000386e+03, 1.502564000000000078e+03, 0.000000000000000000e+00, 0.000000000000000000e+00, 1.000000000000000000e+02
6.000000000000000000e+01, 2.626666999999999916e+03, 4.073846000000000004e+03, 4.097948999999999614e+03, 4.136922999999999774e+03, 1.472820999999999913e+03, 0.000000000000000000e+00, 0.000000000000000000e+00, 1.000000000000000000e+02
6.100000000000000000e+01, 2.639487000000000080e+03, 4.080000000000000000e+03, 4.095896999999999935e+03, 4.145640999999999622e+03, 1.472820999999999913e+03, 0.000000000000000000e+00, 0.000000000000000000e+00, 1.000000000000000000e+02
6.200000000000000000e+01, 2.660000000000000000e+03, 4.088204999999999927e+03, 4.087179000000000087e+03, 4.157435999999999694e+03, 1.491281999999999925e+03, 0.000000000000000000e+00, 0.000000000000000000e+00, 1.000000000000000000e+02
6.300000000000000000e+01, 2.674871999999999844e+03, 4.084103000000000065e+03, 4.085128000000000156e+03, 4.162564000000000306e+03, 1.509230999999999995e+03, 0.000000000000000000e+00, 0.000000000000000000e+00, 1.000000000000000000e+02
6.400000000000000000e+01, 2.682050999999999931e+03, 4.075896999999999935e+03, 4.093846000000000004e+03, 4.152307999999999993e+03, 1.505641000000000076e+03, 0.000000000000000000e+00, 0.000000000000000000e+00, 1.000000000000000000e+02
6.500000000000000000e+01, 2.685641000000000076e+03, 4.075896999999999935e+03, 4.095385000000000218e+03, 4.146154000000000451e+03, 1.487179000000000087e+03, 0.000000000000000000e+00, 0.000000000000000000e+00, 1.000000000000000000e+02
6.600000000000000000e+01, 2.686153999999999996e+03, 4.073846000000000004e+03, 4.084103000000000065e+03, 4.143590000000000146e+03, 1.477949000000000069e+03, 0.000000000000000000e+00, 0.000000000000000000e+00, 1.000000000000000000e+02
6.700000000000000000e+01, 2.682050999999999931e+03, 4.069744000000000142e+03, 4.070255999999999858e+03, 4.134872000000000298e+03, 1.473333000000000084e+03, 0.000000000000000000e+00, 0.000000000000000000e+00, 1.000000000000000000e+02
6.800000000000000000e+01, 2.692820999999999913e+03, 4.069744000000000142e+03, 4.070768999999999778e+03, 4.137435999999999694e+03, 1.482050999999999931e+03, 0.000000000000000000e+00, 0.000000000000000000e+00, 1.000000000000000000e+02
6.900000000000000000e+01, 2.704614999999999782e+03, 4.069744000000000142e+03, 4.084103000000000065e+03, 4.147692000000000007e+03, 1.494872000000000071e+03, 0.000000000000000000e+00, 0.000000000000000000e+00, 1.000000000000000000e+02
7.000000000000000000e+01, 2.702050999999999931e+03, 4.071795000000000073e+03, 4.089744000000000142e+03, 4.151795000000000073e+03, 1.495896999999999935e+03, 0.000000000000000000e+00, 0.000000000000000000e+00, 1.000000000000000000e+02
7.100000000000000000e+01, 2.700512999999999920e+03, 4.073846000000000004e+03, 4.088717999999999847e+03, 4.154359000000000378e+03, 1.491281999999999925e+03, 0.000000000000000000e+00, 0.000000000000000000e+00, 1.000000000000000000e+02
7.200000000000000000e+01, 2.698974000000000160e+03, 4.077949000000000069e+03, 4.095385000000000218e+03, 4.156409999999999854e+03, 1.482050999999999931e+03, 0.000000000000000000e+00, 0.000000000000000000e+00, 1.000000000000000000e+02
7.300000000000000000e+01, 2.706153999999999996e+03, 4.086153999999999996e+03, 4.105127999999999702e+03, 4.153845999999999549e+03, 1.480000000000000000e+03, 0.000000000000000000e+00, 0.000000000000000000e+00, 1.000000000000000000e+02
7.400000000000000000e+01, 2.717436000000000149e+03, 4.084103000000000065e+03, 4.094871999999999844e+03, 4.149743999999999687e+03, 1.490256000000000085e+03, 0.000000000000000000e+00, 0.000000000000000000e+00, 1.000000000000000000e+02
7.500000000000000000e+01, 2.717436000000000149e+03, 4.069744000000000142e+03, 4.077436000000000149e+03, 4.141025999999999840e+03, 1.502564000000000078e+03, 0.000000000000000000e+00, 0.000000000000000000e+00, 1.000000000000000000e+02
7.600000000000000000e+01, 2.716409999999999854e+03, 4.061538000000000011e+03, 4.081025999999999840e+03, 4.134872000000000298e+03, 1.521026000000000067e+03, 0.000000000000000000e+00, 0.000000000000000000e+00, 1.000000000000000000e+02
7.700000000000000000e+01, 2.723077000000000226e+03, 4.069744000000000142e+03, 4.087692000000000007e+03, 4.134872000000000298e+03, 1.550256000000000085e+03, 0.000000000000000000e+00, 0.000000000000000000e+00, 1.000000000000000000e+02
7.800000000000000000e+01, 2.735385000000000218e+03, 4.073846000000000004e+03, 4.092307999999999993e+03, 4.147692000000000007e+03, 1.588718000000000075e+03, 0.000000000000000000e+00, 0.000000000000000000e+00, 1.000000000000000000e+02
7.900000000000000000e+01, 2.743590000000000146e+03, 4.075896999999999935e+03, 4.090255999999999858e+03, 4.157435999999999694e+03, 1.612307999999999993e+03, 0.000000000000000000e+00, 0.000000000000000000e+00, 1.000000000000000000e+02
8.000000000000000000e+01, 2.741538000000000011e+03, 4.073846000000000004e+03, 4.074871999999999844e+03, 4.141025999999999840e+03, 1.624615000000000009e+03, 0.000000000000000000e+00, 0.000000000000000000e+00, 1.000000000000000000e+02
8.100000000000000000e+01, 2.740000000000000000e+03, 4.065641000000000076e+03, 4.076922999999999774e+03, 4.127692000000000007e+03, 1.656923000000000002e+03, 0.000000000000000000e+00, 0.000000000000000000e+00, 1.000000000000000000e+02
8.200000000000000000e+01, 2.743077000000000226e+03, 4.069744000000000142e+03, 4.086666999999999916e+03, 4.144103000000000065e+03, 1.683076999999999998e+03, 0.000000000000000000e+00, 0.000000000000000000e+00, 1.000000000000000000e+02
8.300000000000000000e+01, 2.745128000000000156e+03, 4.073846000000000004e+03, 4.081538000000000011e+03, 4.158462000000000444e+03, 1.694872000000000071e+03, 0.000000000000000000e+00, 0.000000000000000000e+00, 1.000000000000000000e+02
8.400000000000000000e+01, 2.746153999999999996e+03, 4.065641000000000076e+03, 4.070768999999999778e+03, 4.143590000000000146e+03, 1.719487000000000080e+03, 0.000000000000000000e+00, 0.000000000000000000e+00, 1.000000000000000000e+02
8.500000000000000000e+01, 2.740000000000000000e+03, 4.063590000000000146e+03, 4.060512999999999920e+03, 4.135385000000000218e+03, 1.743076999999999998e+03, 0.000000000000000000e+00, 0.000000000000000000e+00, 1.000000000000000000e+02
8.600000000000000000e+01, 2.733846000000000004e+03, 4.075896999999999935e+03, 4.055385000000000218e+03, 4.145127999999999702e+03, 1.757949000000000069e+03, 0.000000000000000000e+00, 0.000000000000000000e+00, 1.000000000000000000e+02
8.700000000000000000e+01, 2.741025999999999840e+03, 4.094358999999999924e+03, 4.058461999999999989e+03, 4.142051000000000386e+03, 1.780512999999999920e+03, 0.000000000000000000e+00, 0.000000000000000000e+00, 1.000000000000000000e+02
8.800000000000000000e+01, 2.748204999999999927e+03, 4.102564000000000306e+03, 4.062050999999999931e+03, 4.133845999999999549e+03, 1.809230999999999995e+03, 0.000000000000000000e+00, 0.000000000000000000e+00, 1.000000000000000000e+02
8.900000000000000000e+01, 2.746666999999999916e+03, 4.094358999999999924e+03, 4.055385000000000218e+03, 4.136409999999999854e+03, 1.830256000000000085e+03, 0.000000000000000000e+00, 0.000000000000000000e+00, 1.000000000000000000e+02
9.000000000000000000e+01, 2.756409999999999854e+03, 4.092307999999999993e+03, 4.051282000000000153e+03, 4.143590000000000146e+03, 1.850769000000000005e+03, 0.000000000000000000e+00, 0.000000000000000000e+00, 1.000000000000000000e+02
9.100000000000000000e+01, 2.778974000000000160e+03, 4.098462000000000444e+03, 4.055385000000000218e+03, 4.143590000000000146e+03, 1.884615000000000009e+03, 0.000000000000000000e+00, 0.000000000000000000e+00, 1.000000000000000000e+02
9.200000000000000000e+01, 2.785641000000000076e+03, 4.100512999999999920e+03, 4.046153999999999996e+03, 4.137948999999999614e+03, 1.903589999999999918e+03, 0.000000000000000000e+00, 0.000000000000000000e+00, 1.000000000000000000e+02
9.300000000000000000e+01, 2.786666999999999916e+03, 4.100512999999999920e+03, 4.035896999999999935e+03, 4.128717999999999847e+03, 1.916923000000000002e+03, 0.000000000000000000e+00, 0.000000000000000000e+00, 1.000000000000000000e+02
9.400000000000000000e+01, 2.807179000000000087e+03, 4.098462000000000444e+03, 4.033846000000000004e+03, 4.126154000000000451e+03, 1.952820999999999913e+03, 0.000000000000000000e+00, 0.000000000000000000e+00, 1.000000000000000000e+02
9.500000000000000000e+01, 2.829744000000000142e+03, 4.094358999999999924e+03, 4.024103000000000065e+03, 4.141025999999999840e+03, 1.988718000000000075e+03, 0.000000000000000000e+00, 0.000000000000000000e+00, 1.000000000000000000e+02
9.600000000000000000e+01, 2.840000000000000000e+03, 4.094358999999999924e+03, 4.017949000000000069e+03, 4.155385000000000218e+03, 2.013846000000000004e+03, 0.000000000000000000e+00, 0.000000000000000000e+00, 1.000000000000000000e+02
9.700000000000000000e+01, 2.842563999999999851e+03, 4.096409999999999854e+03, 4.021538000000000011e+03, 4.151795000000000073e+03, 2.034872000000000071e+03, 0.000000000000000000e+00, 0.000000000000000000e+00, 1.000000000000000000e+02
9.800000000000000000e+01, 2.853333000000000084e+03, 4.098462000000000444e+03, 4.017949000000000069e+03, 4.153332999999999629e+03, 2.058461999999999989e+03, 0.000000000000000000e+00, 0.000000000000000000e+00, 1.000000000000000000e+02
9.900000000000000000e+01, 2.877436000000000149e+03, 4.104614999999999782e+03, 4.020512999999999920e+03, 4.161025999999999840e+03, 2.091282000000000153e+03, 0.000000000000000000e+00, 0.000000000000000000e+00, 1.000000000000000000e+02
1.000000000000000000e+02, 2.886666999999999916e+03, 4.110769000000000233e+03, 4.026153999999999996e+03, 4.150256000000000313e+03, 2.114871999999999844e+03, 0.000000000000000000e+00, 0.000000000000000000e+00, 1.000000000000000000e+02
1.010000000000000000e+02, 2.882050999999999931e+03, 4.106667000000000371e+03, 4.021025999999999840e+03, 4.149743999999999687e+03, 2.131282000000000153e+03, 0.000000000000000000e+00, 0.000000000000000000e+00, 1.000000000000000000e+02
1.020000000000000000e+02, 2.888717999999999847e+03, 4.106667000000000371e+03, 4.015385000000000218e+03, 4.161537999999999556e+03, 2.153333000000000084e+03, 0.000000000000000000e+00, 0.000000000000000000e+00, 1.000000000000000000e+02
1.030000000000000000e+02, 2.901538000000000011e+03, 4.110769000000000233e+03, 4.014871999999999844e+03, 4.142564000000000306e+03, 2.172820999999999913e+03, 0.000000000000000000e+00, 0.000000000000000000e+00, 1.000000000000000000e+02
1.040000000000000000e+02, 2.915385000000000218e+03, 4.110769000000000233e+03, 4.012307999999999993e+03, 4.124614999999999782e+03, 2.193846000000000004e+03, 0.000000000000000000e+00, 0.000000000000000000e+00, 1.000000000000000000e+02
1.050000000000000000e+02, 2.926666999999999916e+03, 4.104614999999999782e+03, 4.004103000000000065e+03, 4.136922999999999774e+03, 2.215896999999999935e+03, 0.000000000000000000e+00, 0.000000000000000000e+00, 1.000000000000000000e+02
1.060000000000000000e+02, 2.937949000000000069e+03, 4.100512999999999920e+03, 3.998461999999999989e+03, 4.144103000000000065e+03, 2.237436000000000149e+03, 0.000000000000000000e+00, 0.000000000000000000e+00, 1.000000000000000000e+02
1.070000000000000000e+02, 2.948717999999999847e+03, 4.106667000000000371e+03, 3.993846000000000004e+03, 4.133845999999999549e+03, 2.254358999999999924e+03, 0.000000000000000000e+00, 0.000000000000000000e+00, 1.000000000000000000e+02
1.080000000000000000e+02, 2.958974000000000160e+03, 4.108717999999999847e+03, 3.992820999999999913e+03, 4.131282000000000153e+03, 2.277949000000000069e+03, 0.000000000000000000e+00, 0.000000000000000000e+00, 1.000000000000000000e+02
1.090000000000000000e+02, 2.973846000000000004e+03, 4.104614999999999782e+03, 4.006153999999999996e+03, 4.145640999999999622e+03, 2.319487000000000080e+03, 0.000000000000000000e+00, 0.000000000000000000e+00, 1.000000000000000000e+02
1.100000000000000000e+02, 2.986666999999999916e+03, 4.110769000000000233e+03, 4.009231000000000222e+03, 4.153332999999999629e+03, 2.347179000000000087e+03, 0.000000000000000000e+00, 0.000000000000000000e+00, 1.000000000000000000e+02
1.110000000000000000e+02, 3.005128000000000156e+03, 4.127179000000000087e+03, 4.009744000000000142e+03, 4.148204999999999927e+03, 2.361538000000000011e+03, 0.000000000000000000e+00, 0.000000000000000000e+00, 1.000000000000000000e+02
1.120000000000000000e+02, 3.037436000000000149e+03, 4.133332999999999629e+03, 4.026153999999999996e+03, 4.151282000000000153e+03, 2.393333000000000084e+03, 0.000000000000000000e+00, 0.000000000000000000e+00, 1.000000000000000000e+02
1.130000000000000000e+02, 3.064614999999999782e+03, 4.125127999999999702e+03, 4.037949000000000069e+03, 4.161025999999999840e+03, 2.433333000000000084e+03, 0.000000000000000000e+00, 0.000000000000000000e+00, 1.000000000000000000e+02
1.140000000000000000e+02, 3.092307999999999993e+03, 4.118974000000000160e+03, 4.035385000000000218e+03, 4.167692000000000007e+03, 2.474358999999999924e+03, 0.000000000000000000e+00, 0.000000000000000000e+00, 1.000000000000000000e+02
1.150000000000000000e+02, 3.128204999999999927e+03, 4.121025999999999840e+03, 4.024614999999999782e+03, 4.162051000000000386e+03, 2.520512999999999920e+03, 0.000000000000000000e+00, 0.000000000000000000e+00, 1.000000000000000000e+02
1.160000000000000000e+02, 3.155896999999999935e+03, 4.125127999999999702e+03, 4.018974000000000160e+03, 4.153332999999999629e+03, 2.567179000000000087e+03, 0.000000000000000000e+00, 0.000000000000000000e+00, 1.000000000000000000e+02
1.170000000000000000e+02, 3.185641000000000076e+03, 4.123077000000000226e+03, 4.026666999999999916e+03, 4.153845999999999549e+03, 2.610768999999999778e+03, 0.000000000000000000e+00, 0.000000000000000000e+00, 1.000000000000000000e+02
1.180000000000000000e+02, 3.235896999999999935e+03, 4.127179000000000087e+03, 4.029744000000000142e+03, 4.166154000000000451e+03, 2.658461999999999989e+03, 0.000000000000000000e+00, 0.000000000000000000e+00, 1.000000000000000000e+02
1.190000000000000000e+02, 3.284614999999999782e+03, 4.139487000000000080e+03, 4.026666999999999916e+03, 4.178462000000000444e+03, 2.709744000000000142e+03, 0.000000000000000000e+00, 0.000000000000000000e+00, 1.000000000000000000e+02
1.200000000000000000e+02, 3.310255999999999858e+03, 4.141537999999999556e+03, 4.027179000000000087e+03, 4.171795000000000073e+03, 2.741538000000000011e+03, 0.000000000000000000e+00, 0.000000000000000000e+00, 1.000000000000000000e+02
1.210000000000000000e+02, 3.331795000000000073e+03, 4.133332999999999629e+03, 4.029231000000000222e+03, 4.161537999999999556e+03, 2.768204999999999927e+03, 0.000000000000000000e+00, 0.000000000000000000e+00, 1.000000000000000000e+02
1.220000000000000000e+02, 3.351795000000000073e+03, 4.137435999999999694e+03, 4.027179000000000087e+03, 4.172307999999999993e+03, 2.796922999999999774e+03, 0.000000000000000000e+00, 0.000000000000000000e+00, 1.000000000000000000e+02
1.230000000000000000e+02, 3.351795000000000073e+03, 4.141537999999999556e+03, 4.023077000000000226e+03, 4.179487000000000080e+03, 2.808717999999999847e+03, 0.000000000000000000e+00, 0.000000000000000000e+00, 1.000000000000000000e+02
1.240000000000000000e+02, 3.345128000000000156e+03, 4.137435999999999694e+03, 4.021538000000000011e+03, 4.168204999999999927e+03, 2.827179000000000087e+03, 0.000000000000000000e+00, 0.000000000000000000e+00, 1.000000000000000000e+02
1.250000000000000000e+02, 3.345128000000000156e+03, 4.137435999999999694e+03, 4.019487000000000080e+03, 4.168204999999999927e+03, 2.854871999999999844e+03, 0.000000000000000000e+00, 0.000000000000000000e+00, 1.000000000000000000e+02
1.260000000000000000e+02, 3.340512999999999920e+03, 4.141537999999999556e+03, 4.023077000000000226e+03, 4.172307999999999993e+03, 2.853333000000000084e+03, 0.000000000000000000e+00, 0.000000000000000000e+00, 1.000000000000000000e+02
1.270000000000000000e+02, 3.333333000000000084e+03, 4.141537999999999556e+03, 4.028204999999999927e+03, 4.158462000000000444e+03, 2.842563999999999851e+03, 0.000000000000000000e+00, 0.000000000000000000e+00, 1.000000000000000000e+02
0.000000000000000000e+00, 3.321025999999999840e+03, 4.139487000000000080e+03, 4.012307999999999993e+03, 4.146154000000000451e+03, 2.850255999999999858e+03, 0.000000000000000000e+00, 0.000000000000000000e+00, 1.000000000000000000e+02
1.000000000000000000e+00, 3.312820999999999913e+03, 4.131282000000000153e+03, 3.996922999999999774e+03, 4.146667000000000371e+03, 2.872820999999999913e+03, 0.000000000000000000e+00, 0.000000000000000000e+00, 1.000000000000000000e+02
2.000000000000000000e+00, 3.306666999999999916e+03, 4.123077000000000226e+03, 3.995385000000000218e+03, 4.152820999999999913e+03, 2.884614999999999782e+03, 0.000000000000000000e+00, 0.000000000000000000e+00, 1.000000000000000000e+02
3.000000000000000000e+00, 3.293846000000000004e+03, 4.121025999999999840e+03, 3.994358999999999924e+03, 4.153332999999999629e+03, 2.885128000000000156e+03, 0.000000000000000000e+00, 0.000000000000000000e+00, 1.000000000000000000e+02
4.000000000000000000e+00, 3.286153999999999996e+03, 4.123077000000000226e+03, 4.002050999999999931e+03, 4.138462000000000444e+03, 2.900000000000000000e+03, 0.000000000000000000e+00, 0.000000000000000000e+00, 1.000000000000000000e+02
5.000000000000000000e+00, 3.275896999999999935e+03, 4.118974000000000160e+03, 4.006153999999999996e+03, 4.128204999999999927e+03, 2.914871999999999844e+03, 0.000000000000000000e+00, 0.000000000000000000e+00, 1.000000000000000000e+02
6.000000000000000000e+00, 3.259487000000000080e+03, 4.108717999999999847e+03, 3.995896999999999935e+03, 4.138462000000000444e+03, 2.922563999999999851e+03, 0.000000000000000000e+00, 0.000000000000000000e+00, 1.000000000000000000e+02
7.000000000000000000e+00, 3.247692000000000007e+03, 4.104614999999999782e+03, 3.987179000000000087e+03, 4.139487000000000080e+03, 2.933846000000000004e+03, 0.000000000000000000e+00, 0.000000000000000000e+00, 1.000000000000000000e+02
8.000000000000000000e+00, 3.243077000000000226e+03, 4.114872000000000298e+03, 3.994358999999999924e+03, 4.127179000000000087e+03, 2.953333000000000084e+03, 0.000000000000000000e+00, 0.000000000000000000e+00, 1.000000000000000000e+02
9.000000000000000000e+00, 3.248204999999999927e+03, 4.116922999999999774e+03, 4.012307999999999993e+03, 4.130769000000000233e+03, 2.977949000000000069e+03, 0.000000000000000000e+00, 0.000000000000000000e+00, 1.000000000000000000e+02
1.000000000000000000e+01, 3.252307999999999993e+03, 4.108717999999999847e+03, 4.015385000000000218e+03, 4.140000000000000000e+03, 2.992820999999999913e+03, 0.000000000000000000e+00, 0.000000000000000000e+00, 1.000000000000000000e+02
1.100000000000000000e+01, 3.253333000000000084e+03, 4.106667000000000371e+03, 4.010255999999999858e+03, 4.143077000000000226e+03, 3.018974000000000160e+03, 0.000000000000000000e+00, 0.000000000000000000e+00, 1.000000000000000000e+02
1.200000000000000000e+01, 3.249744000000000142e+03, 4.112820999999999913e+03, 4.005641000000000076e+03, 4.146667000000000371e+03, 3.046666999999999916e+03, 0.000000000000000000e+00, 0.000000000000000000e+00, 1.000000000000000000e+02
1.300000000000000000e+01, 3.249744000000000142e+03, 4.110769000000000233e+03, 4.010768999999999778e+03, 4.147692000000000007e+03, 3.058461999999999989e+03, 0.000000000000000000e+00, 0.000000000000000000e+00, 1.000000000000000000e+02
1.400000000000000000e+01, 3.265128000000000156e+03, 4.108717999999999847e+03, 4.025641000000000076e+03, 4.151795000000000073e+03, 3.081538000000000011e+03, 0.000000000000000000e+00, 0.000000000000000000e+00, 1.000000000000000000e+02
1.500000000000000000e+01, 3.284614999999999782e+03, 4.116922999999999774e+03, 4.022563999999999851e+03, 4.160000000000000000e+03, 3.115385000000000218e+03, 0.000000000000000000e+00, 0.000000000000000000e+00, 1.000000000000000000e+02
1.600000000000000000e+01, 3.302563999999999851e+03, 4.125127999999999702e+03, 4.010768999999999778e+03, 4.156409999999999854e+03, 3.136409999999999854e+03, 0.000000000000000000e+00, 0.000000000000000000e+00, 1.000000000000000000e+02
1.700000000000000000e+01, 3.322050999999999931e+03, 4.123077000000000226e+03, 4.011282000000000153e+03, 4.147692000000000007e+03, 3.141538000000000011e+03, 0.000000000000000000e+00, 0.000000000000000000e+00, 1.000000000000000000e+02
1.800000000000000000e+01, 3.336922999999999774e+03, 4.123077000000000226e+03, 4.007179000000000087e+03, 4.145640999999999622e+03, 3.147692000000000007e+03, 0.000000000000000000e+00, 0.000000000000000000e+00, 1.000000000000000000e+02
1.900000000000000000e+01, 3.344614999999999782e+03, 4.118974000000000160e+03, 4.004614999999999782e+03, 4.143077000000000226e+03, 3.181025999999999840e+03, 0.000000000000000000e+00, 0.000000000000000000e+00, 1.000000000000000000e+02
2.000000000000000000e+01, 3.348204999999999927e+03, 4.123077000000000226e+03, 4.015385000000000218e+03, 4.151282000000000153e+03, 3.220512999999999920e+03, 0.000000000000000000e+00, 0.000000000000000000e+00, 1.000000000000000000e+02
2.100000000000000000e+01, 3.345641000000000076e+03, 4.131282000000000153e+03, 4.016409999999999854e+03, 4.163077000000000226e+03, 3.230768999999999778e+03, 0.000000000000000000e+00, 0.000000000000000000e+00, 1.000000000000000000e+02
2.200000000000000000e+01, 3.337949000000000069e+03, 4.127179000000000087e+03, 4.005641000000000076e+03, 4.144103000000000065e+03, 3.229744000000000142e+03, 0.000000000000000000e+00, 0.000000000000000000e+00, 1.000000000000000000e+02
2.300000000000000000e+01, 3.331282000000000153e+03, 4.116922999999999774e+03, 3.997949000000000069e+03, 4.116922999999999774e+03, 3.240512999999999920e+03, 0.000000000000000000e+00, 0.000000000000000000e+00, 1.000000000000000000e+02
2.400000000000000000e+01, 3.333333000000000084e+03, 4.116922999999999774e+03, 4.000000000000000000e+03, 4.130769000000000233e+03, 3.260512999999999920e+03, 0.000000000000000000e+00, 0.000000000000000000e+00, 1.000000000000000000e+02
2.500000000000000000e+01, 3.329744000000000142e+03, 4.114872000000000298e+03, 4.005128000000000156e+03, 4.146667000000000371e+03, 3.261538000000000011e+03, 0.000000000000000000e+00, 0.000000000000000000e+00, 1.000000000000000000e+02
2.600000000000000000e+01, 3.314358999999999924e+03, 4.102564000000000306e+03, 4.003077000000000226e+03, 4.139487000000000080e+03, 3.245641000000000076e+03, 0.000000000000000000e+00, 0.000000000000000000e+00, 1.000000000000000000e+02
2.700000000000000000e+01, 3.318974000000000160e+03, 4.108717999999999847e+03, 4.002563999999999851e+03, 4.135385000000000218e+03, 3.248204999999999927e+03, 0.000000000000000000e+00, 0.000000000000000000e+00, 1.000000000000000000e+02
2.800000000000000000e+01, 3.344103000000000065e+03, 4.131282000000000153e+03, 4.010255999999999858e+03, 4.125640999999999622e+03, 3.261025999999999840e+03, 0.000000000000000000e+00, 0.000000000000000000e+00, 1.000000000000000000e+02
2.900000000000000000e+01, 3.364103000000000065e+03, 4.131282000000000153e+03, 4.018461999999999989e+03, 4.129230999999999767e+03, 3.272820999999999913e+03, 0.000000000000000000e+00, 0.000000000000000000e+00, 1.000000000000000000e+02
3.000000000000000000e+01, 3.372820999999999913e+03, 4.121025999999999840e+03, 4.019487000000000080e+03, 4.148717999999999847e+03, 3.297436000000000149e+03, 0.000000000000000000e+00, 0.000000000000000000e+00, 1.000000000000000000e+02
3.100000000000000000e+01, 3.379487000000000080e+03, 4.131282000000000153e+03, 4.015896999999999935e+03, 4.146667000000000371e+03, 3.329744000000000142e+03, 0.000000000000000000e+00, 0.000000000000000000e+00, 1.000000000000000000e+02
3.200000000000000000e+01, 3.389231000000000222e+03, 4.139487000000000080e+03, 4.012820999999999913e+03, 4.133845999999999549e+03, 3.352820999999999913e+03, 0.000000000000000000e+00, 0.000000000000000000e+00, 1.000000000000000000e+02
3.300000000000000000e+01, 3.397949000000000069e+03, 4.125127999999999702e+03, 4.011795000000000073e+03, 4.132820999999999913e+03, 3.360512999999999920e+03, 0.000000000000000000e+00, 0.000000000000000000e+00, 1.000000000000000000e+02
3.400000000000000000e+01, 3.417949000000000069e+03, 4.125127999999999702e+03, 4.027692000000000007e+03, 4.137948999999999614e+03, 3.382050999999999931e+03, 0.000000000000000000e+00, 0.000000000000000000e+00, 1.000000000000000000e+02
3.500000000000000000e+01, 3.446153999999999996e+03, 4.143590000000000146e+03, 4.046153999999999996e+03, 4.143590000000000146e+03, 3.416409999999999854e+03, 0.000000000000000000e+00, 0.000000000000000000e+00, 1.000000000000000000e+02
3.600000000000000000e+01, 3.466666999999999916e+03, 4.147692000000000007e+03, 4.037949000000000069e+03, 4.148717999999999847e+03, 3.435896999999999935e+03, 0.000000000000000000e+00, 0.000000000000000000e+00, 1.000000000000000000e+02
3.700000000000000000e+01, 3.484103000000000065e+03, 4.145640999999999622e+03, 4.025641000000000076e+03, 4.146154000000000451e+03, 3.453333000000000084e+03, 0.000000000000000000e+00, 0.000000000000000000e+00, 1.000000000000000000e+02
3.800000000000000000e+01, 3.490768999999999778e+03, 4.145640999999999622e+03, 4.024614999999999782e+03, 4.143590000000000146e+03, 3.475896999999999935e+03, 0.000000000000000000e+00, 0.000000000000000000e+00, 1.000000000000000000e+02
3.900000000000000000e+01, 3.488204999999999927e+03, 4.137435999999999694e+03, 4.018974000000000160e+03, 4.138462000000000444e+03, 3.497436000000000149e+03, 0.000000000000000000e+00, 0.000000000000000000e+00, 1.000000000000000000e+02
4.000000000000000000e+01, 3.503077000000000226e+03, 4.133332999999999629e+03, 4.006153999999999996e+03, 4.125127999999999702e+03, 3.507179000000000087e+03, 0.000000000000000000e+00, 0.000000000000000000e+00, 1.000000000000000000e+02
4.100000000000000000e+01, 3.539487000000000080e+03, 4.135385000000000218e+03, 4.005128000000000156e+03, 4.126667000000000371e+03, 3.526666999999999916e+03, 0.000000000000000000e+00, 0.000000000000000000e+00, 1.000000000000000000e+02
4.200000000000000000e+01, 3.572307999999999993e+03, 4.139487000000000080e+03, 4.017436000000000149e+03, 4.139487000000000080e+03, 3.571795000000000073e+03, 0.000000000000000000e+00, 0.000000000000000000e+00, 1.000000000000000000e+02
4.300000000000000000e+01, 3.585641000000000076e+03, 4.151795000000000073e+03, 4.009744000000000142e+03, 4.135896999999999935e+03, 3.605641000000000076e+03, 0.000000000000000000e+00, 0.000000000000000000e+00, 1.000000000000000000e+02
4.400000000000000000e+01, 3.605641000000000076e+03, 4.153845999999999549e+03, 4.002563999999999851e+03, 4.131282000000000153e+03, 3.625641000000000076e+03, 0.000000000000000000e+00, 0.000000000000000000e+00, 1.000000000000000000e+02
4.500000000000000000e+01, 3.636922999999999774e+03, 4.137435999999999694e+03, 4.010768999999999778e+03, 4.135385000000000218e+03, 3.654358999999999924e+03, 0.000000000000000000e+00, 0.000000000000000000e+00, 1.000000000000000000e+02
4.600000000000000000e+01, 3.652820999999999913e+03, 4.137435999999999694e+03, 4.007692000000000007e+03, 4.130256000000000313e+03, 3.681538000000000011e+03, 0.000000000000000000e+00, 0.000000000000000000e+00, 1.000000000000000000e+02
4.700000000000000000e+01, 3.666666999999999916e+03, 4.153845999999999549e+03, 4.007179000000000087e+03, 4.127179000000000087e+03, 3.702563999999999851e+03, 0.000000000000000000e+00, 0.000000000000000000e+00, 1.000000000000000000e+02
4.800000000000000000e+01, 3.686153999999999996e+03, 4.162051000000000386e+03, 4.016409999999999854e+03, 4.122564000000000306e+03, 3.709744000000000142e+03, 0.000000000000000000e+00, 0.000000000000000000e+00, 1.000000000000000000e+02
4.900000000000000000e+01, 3.706153999999999996e+03, 4.147692000000000007e+03, 4.022050999999999931e+03, 4.114359000000000378e+03, 3.724103000000000065e+03, 0.000000000000000000e+00, 0.000000000000000000e+00, 1.000000000000000000e+02
5.000000000000000000e+01, 3.732820999999999913e+03, 4.137435999999999694e+03, 4.018461999999999989e+03, 4.128717999999999847e+03, 3.755896999999999935e+03, 0.000000000000000000e+00, 0.000000000000000000e+00, 1.000000000000000000e+02
5.100000000000000000e+01, 3.759487000000000080e+03, 4.149743999999999687e+03, 4.015385000000000218e+03, 4.146667000000000371e+03, 3.775385000000000218e+03, 0.000000000000000000e+00, 0.000000000000000000e+00, 1.000000000000000000e+02
5.200000000000000000e+01, 3.785128000000000156e+03, 4.147692000000000007e+03, 4.031795000000000073e+03, 4.142564000000000306e+03, 3.791795000000000073e+03, 0.000000000000000000e+00, 0.000000000000000000e+00, 1.000000000000000000e+02
5.300000000000000000e+01, 3.807692000000000007e+03, 4.131282000000000153e+03, 4.037949000000000069e+03, 4.136409999999999854e+03, 3.814358999999999924e+03, 0.000000000000000000e+00, 0.000000000000000000e+00, 1.000000000000000000e+02
5.400000000000000000e+01, 3.828717999999999847e+03, 4.131282000000000153e+03, 4.020512999999999920e+03, 4.142051000000000386e+03, 3.839487000000000080e+03, 0.000000000000000000e+00, 0.000000000000000000e+00, 1.000000000000000000e+02
5.500000000000000000e+01, 3.855385000000000218e+03, 4.131282000000000153e+03, 4.015896999999999935e+03, 4.147692000000000007e+03, 3.874871999999999844e+03, 0.000000000000000000e+00, 0.000000000000000000e+00, 1.000000000000000000e+02
5.600000000000000000e+01, 3.882050999999999931e+03, 4.121025999999999840e+03, 4.021538000000000011e+03, 4.148717999999999847e+03, 3.899487000000000080e+03, 0.000000000000000000e+00, 0.000000000000000000e+00, 1.000000000000000000e+02
5.700000000000000000e+01, 3.904103000000000065e+03, 4.127179000000000087e+03, 4.022563999999999851e+03, 4.146667000000000371e+03, 3.908717999999999847e+03, 0.000000000000000000e+00, 0.000000000000000000e+00, 1.000000000000000000e+02
5.800000000000000000e+01, 3.918461999999999989e+03, 4.139487000000000080e+03, 4.031795000000000073e+03, 4.143590000000000146e+03, 3.921538000000000011e+03, 0.000000000000000000e+00, 0.000000000000000000e+00, 1.000000000000000000e+02
5.900000000000000000e+01, 3.934871999999999844e+03, 4.133332999999999629e+03, 4.043590000000000146e+03, 4.147179000000000087e+03, 3.941025999999999840e+03, 0.000000000000000000e+00, 0.000000000000000000e+00, 1.000000000000000000e+02
6.000000000000000000e+01, 3.967179000000000087e+03, 4.133332999999999629e+03, 4.042050999999999931e+03, 4.148204999999999927e+03, 3.964614999999999782e+03, 0.000000000000000000e+00, 0.000000000000000000e+00, 1.000000000000000000e+02
6.100000000000000000e+01, 4.002563999999999851e+03, 4.141537999999999556e+03, 4.038974000000000160e+03, 4.143590000000000146e+03, 3.986153999999999996e+03, 0.000000000000000000e+00, 0.000000000000000000e+00, 1.000000000000000000e+02
6.200000000000000000e+01, 4.028717999999999847e+03, 4.139487000000000080e+03, 4.040000000000000000e+03, 4.142564000000000306e+03, 4.005641000000000076e+03, 0.000000000000000000e+00, 0.000000000000000000e+00, 1.000000000000000000e+02
6.300000000000000000e+01, 4.052307999999999993e+03, 4.137435999999999694e+03, 4.036922999999999774e+03, 4.143077000000000226e+03, 4.027692000000000007e+03, 0.000000000000000000e+00, 0.000000000000000000e+00, 1.000000000000000000e+02
6.400000000000000000e+01, 4.074871999999999844e+03, 4.139487000000000080e+03, 4.038461999999999989e+03, 4.148717999999999847e+03, 4.037949000000000069e+03, 0.000000000000000000e+00, 0.000000000000000000e+00, 1.000000000000000000e+02
6.500000000000000000e+01, 4.097435999999999694e+03, 4.129230999999999767e+03, 4.043077000000000226e+03, 4.147692000000000007e+03, 4.045128000000000156e+03, 0.000000000000000000e+00, 0.000000000000000000e+00, 1.000000000000000000e+02
6.600000000000000000e+01, 4.129230999999999767e+03, 4.125127999999999702e+03, 4.042563999999999851e+03, 4.133332999999999629e+03, 4.077436000000000149e+03, 0.000000000000000000e+00, 0.000000000000000000e+00, 1.000000000000000000e+02
6.700000000000000000e+01, 4.165640999999999622e+03, 4.133332999999999629e+03, 4.048717999999999847e+03, 4.140000000000000000e+03, 4.116922999999999774e+03, 0.000000000000000000e+00, 0.000000000000000000e+00, 1.000000000000000000e+02
6.800000000000000000e+01, 4.183590000000000146e+03, 4.129230999999999767e+03, 4.052307999999999993e+03, 4.157948999999999614e+03, 4.125640999999999622e+03, 0.000000000000000000e+00, 0.000000000000000000e+00, 1.000000000000000000e+02
6.900000000000000000e+01, 4.190769000000000233e+03, 4.116922999999999774e+03, 4.043590000000000146e+03, 4.149230999999999767e+03, 4.135896999999999935e+03, 0.000000000000000000e+00, 0.000000000000000000e+00, 1.000000000000000000e+02
7.000000000000000000e+01, 4.219487000000000080e+03, 4.123077000000000226e+03, 4.043077000000000226e+03, 4.132820999999999913e+03, 4.179487000000000080e+03, 0.000000000000000000e+00, 0.000000000000000000e+00, 1.000000000000000000e+02
7.100000000000000000e+01, 4.261537999999999556e+03, 4.129230999999999767e+03, 4.048204999999999927e+03, 4.141025999999999840e+03, 4.221537999999999556e+03, 0.000000000000000000e+00, 0.000000000000000000e+00, 1.000000000000000000e+02
7.200000000000000000e+01, 4.288204999999999927e+03, 4.123077000000000226e+03, 4.052307999999999993e+03, 4.155896999999999935e+03, 4.253332999999999629e+03, 0.000000000000000000e+00, 0.000000000000000000e+00, 1.000000000000000000e+02
7.300000000000000000e+01, 4.298974000000000160e+03, 4.121025999999999840e+03, 4.054358999999999924e+03, 4.152820999999999913e+03, 4.271795000000000073e+03, 0.000000000000000000e+00, 0.000000000000000000e+00, 1.000000000000000000e+02
7.400000000000000000e+01, 4.309743999999999687e+03, 4.116922999999999774e+03, 4.044103000000000065e+03, 4.137948999999999614e+03, 4.259487000000000080e+03, 0.000000000000000000e+00, 0.000000000000000000e+00, 1.000000000000000000e+02
7.500000000000000000e+01, 4.334872000000000298e+03, 4.118974000000000160e+03, 4.045128000000000156e+03, 4.137435999999999694e+03, 4.265127999999999702e+03, 0.000000000000000000e+00, 0.000000000000000000e+00, 1.000000000000000000e+02
7.600000000000000000e+01, 4.355385000000000218e+03, 4.125127999999999702e+03, 4.057949000000000069e+03, 4.154359000000000378e+03, 4.294872000000000298e+03, 0.000000000000000000e+00, 0.000000000000000000e+00, 1.000000000000000000e+02
7.700000000000000000e+01, 4.367179000000000087e+03, 4.121025999999999840e+03, 4.056922999999999774e+03, 4.150256000000000313e+03, 4.308204999999999927e+03, 0.000000000000000000e+00, 0.000000000000000000e+00, 1.000000000000000000e+02
7.800000000000000000e+01, 4.388717999999999847e+03, 4.114872000000000298e+03, 4.053846000000000004e+03, 4.126667000000000371e+03, 4.320000000000000000e+03, 0.000000000000000000e+00, 0.000000000000000000e+00, 1.000000000000000000e+02
7.900000000000000000e+01, 4.406667000000000371e+03, 4.116922999999999774e+03, 4.052820999999999913e+03, 4.127179000000000087e+03, 4.346667000000000371e+03, 0.000000000000000000e+00, 0.000000000000000000e+00, 1.000000000000000000e+02
8.000000000000000000e+01, 4.424614999999999782e+03, 4.114872000000000298e+03, 4.054871999999999844e+03, 4.143590000000000146e+03, 4.389230999999999767e+03, 0.000000000000000000e+00, 0.000000000000000000e+00, 1.000000000000000000e+02
8.100000000000000000e+01, 4.454359000000000378e+03, 4.112820999999999913e+03, 4.058461999999999989e+03, 4.138462000000000444e+03, 4.423590000000000146e+03, 0.000000000000000000e+00, 0.000000000000000000e+00, 1.000000000000000000e+02
8.200000000000000000e+01, 4.478462000000000444e+03, 4.114872000000000298e+03, 4.053333000000000084e+03, 4.129743999999999687e+03, 4.443077000000000226e+03, 0.000000000000000000e+00, 0.000000000000000000e+00, 1.000000000000000000e+02
8.300000000000000000e+01, 4.504103000000000065e+03, 4.110769000000000233e+03, 4.049231000000000222e+03, 4.137435999999999694e+03, 4.477948999999999614e+03, 0.000000000000000000e+00, 0.000000000000000000e+00, 1.000000000000000000e+02
8.400000000000000000e+01, 4.541537999999999556e+03, 4.114872000000000298e+03, 4.051795000000000073e+03, 4.135896999999999935e+03, 4.512820999999999913e+03, 0.000000000000000000e+00, 0.000000000000000000e+00, 1.000000000000000000e+02
8.500000000000000000e+01, 4.580000000000000000e+03, 4.125127999999999702e+03, 4.062563999999999851e+03, 4.137948999999999614e+03, 4.535896999999999935e+03, 0.000000000000000000e+00, 0.000000000000000000e+00, 1.000000000000000000e+02
8.600000000000000000e+01, 4.600000000000000000e+03, 4.125127999999999702e+03, 4.061538000000000011e+03, 4.146154000000000451e+03, 4.546154000000000451e+03, 0.000000000000000000e+00, 0.000000000000000000e+00, 1.000000000000000000e+02
8.700000000000000000e+01, 4.613845999999999549e+03, 4.118974000000000160e+03, 4.050255999999999858e+03, 4.141025999999999840e+03, 4.555896999999999935e+03, 0.000000000000000000e+00, 0.000000000000000000e+00, 1.000000000000000000e+02
8.800000000000000000e+01, 4.641537999999999556e+03, 4.127179000000000087e+03, 4.063590000000000146e+03, 4.142564000000000306e+03, 4.588717999999999847e+03, 0.000000000000000000e+00, 0.000000000000000000e+00, 1.000000000000000000e+02
8.900000000000000000e+01, 4.658974000000000160e+03, 4.127179000000000087e+03, 4.074358999999999924e+03, 4.143077000000000226e+03, 4.615896999999999935e+03, 0.000000000000000000e+00, 0.000000000000000000e+00, 1.000000000000000000e+02
9.000000000000000000e+01, 4.662051000000000386e+03, 4.114872000000000298e+03, 4.062050999999999931e+03, 4.134359000000000378e+03, 4.625640999999999622e+03, 0.000000000000000000e+00, 0.000000000000000000e+00, 1.000000000000000000e+02
9.100000000000000000e+01, 4.675896999999999935e+03, 4.104614999999999782e+03, 4.057949000000000069e+03, 4.140512999999999920e+03, 4.643590000000000146e+03, 0.000000000000000000e+00, 0.000000000000000000e+00, 1.000000000000000000e+02
9.200000000000000000e+01, 4.697435999999999694e+03, 4.102564000000000306e+03, 4.068204999999999927e+03, 4.154359000000000378e+03, 4.667692000000000007e+03, 0.000000000000000000e+00, 0.000000000000000000e+00, 1.000000000000000000e+02
9.300000000000000000e+01, 4.708204999999999927e+03, 4.108717999999999847e+03, 4.071282000000000153e+03, 4.158974000000000160e+03, 4.668717999999999847e+03, 0.000000000000000000e+00, 0.000000000000000000e+00, 1.000000000000000000e+02
9.400000000000000000e+01, 4.714872000000000298e+03, 4.106667000000000371e+03, 4.062050999999999931e+03, 4.146154000000000451e+03, 4.661537999999999556e+03, 0.000000000000000000e+00, 0.000000000000000000e+00, 1.000000000000000000e+02
9.500000000000000000e+01, 4.742564000000000306e+03, 4.096409999999999854e+03, 4.060512999999999920e+03, 4.134359000000000378e+03, 4.691282000000000153e+03, 0.000000000000000000e+00, 0.000000000000000000e+00, 1.000000000000000000e+02
9.600000000000000000e+01, 4.789230999999999767e+03, 4.094358999999999924e+03, 4.071795000000000073e+03, 4.148204999999999927e+03, 4.733332999999999629e+03, 0.000000000000000000e+00, 0.000000000000000000e+00, 1.000000000000000000e+02
9.700000000000000000e+01, 4.834359000000000378e+03, 4.110769000000000233e+03, 4.083590000000000146e+03, 4.163077000000000226e+03, 4.760512999999999920e+03, 0.000000000000000000e+00, 0.000000000000000000e+00, 1.000000000000000000e+02
9.800000000000000000e+01, 4.866667000000000371e+03, 4.125127999999999702e+03, 4.085128000000000156e+03, 4.145127999999999702e+03, 4.800512999999999920e+03, 0.000000000000000000e+00, 0.000000000000000000e+00, 1.000000000000000000e+02
9.900000000000000000e+01, 4.885127999999999702e+03, 4.118974000000000160e+03, 4.075385000000000218e+03, 4.128717999999999847e+03, 4.835896999999999935e+03, 0.000000000000000000e+00, 0.000000000000000000e+00, 1.000000000000000000e+02
1.000000000000000000e+02, 4.903590000000000146e+03, 4.118974000000000160e+03, 4.077949000000000069e+03, 4.148717999999999847e+03, 4.844103000000000065e+03, 0.000000000000000000e+00, 0.000000000000000000e+00, 1.000000000000000000e+02
1.010000000000000000e+02, 4.911795000000000073e+03, 4.123077000000000226e+03, 4.078974000000000160e+03, 4.151282000000000153e+03, 4.845640999999999622e+03, 0.000000000000000000e+00, 0.000000000000000000e+00, 1.000000000000000000e+02
1.020000000000000000e+02, 4.910769000000000233e+03, 4.121025999999999840e+03, 4.064103000000000065e+03, 4.132307999999999993e+03, 4.858462000000000444e+03, 0.000000000000000000e+00, 0.000000000000000000e+00, 1.000000000000000000e+02
1.030000000000000000e+02, 4.936409999999999854e+03, 4.121025999999999840e+03, 4.064614999999999782e+03, 4.143077000000000226e+03, 4.881537999999999556e+03, 0.000000000000000000e+00, 0.000000000000000000e+00, 1.000000000000000000e+02
1.040000000000000000e+02, 4.968717999999999847e+03, 4.123077000000000226e+03, 4.073846000000000004e+03, 4.160512999999999920e+03, 4.896922999999999774e+03, 0.000000000000000000e+00, 0.000000000000000000e+00, 1.000000000000000000e+02
1.050000000000000000e+02, 4.975896999999999935e+03, 4.129230999999999767e+03, 4.077436000000000149e+03, 4.152307999999999993e+03, 4.914872000000000298e+03, 0.000000000000000000e+00, 0.000000000000000000e+00, 1.000000000000000000e+02
1.060000000000000000e+02, 4.979487000000000080e+03, 4.137435999999999694e+03, 4.081025999999999840e+03, 4.142051000000000386e+03, 4.937948999999999614e+03, 0.000000000000000000e+00, 0.000000000000000000e+00, 1.000000000000000000e+02
1.070000000000000000e+02, 4.991795000000000073e+03, 4.137435999999999694e+03, 4.078974000000000160e+03, 4.146154000000000451e+03, 4.948717999999999847e+03, 0.000000000000000000e+00, 0.000000000000000000e+00, 1.000000000000000000e+02
1.080000000000000000e+02, 5.012820999999999913e+03, 4.131282000000000153e+03, 4.082563999999999851e+03, 4.152820999999999913e+03, 4.969743999999999687e+03, 0.000000000000000000e+00, 0.000000000000000000e+00, 1.000000000000000000e+02
1.090000000000000000e+02, 5.031795000000000073e+03, 4.135385000000000218e+03, 4.092820999999999913e+03, 4.148717999999999847e+03, 4.997948999999999614e+03, 0.000000000000000000e+00, 0.000000000000000000e+00, 1.000000000000000000e+02
1.100000000000000000e+02, 5.042564000000000306e+03, 4.139487000000000080e+03, 4.095896999999999935e+03, 4.137435999999999694e+03, 5.002564000000000306e+03, 0.000000000000000000e+00, 0.000000000000000000e+00, 1.000000000000000000e+02
1.110000000000000000e+02, 5.051795000000000073e+03, 4.123077000000000226e+03, 4.092820999999999913e+03, 4.131795000000000073e+03, 5.005640999999999622e+03, 0.000000000000000000e+00, 0.000000000000000000e+00, 1.000000000000000000e+02
1.120000000000000000e+02, 5.062051000000000386e+03, 4.121025999999999840e+03, 4.089744000000000142e+03, 4.137948999999999614e+03, 5.016922999999999774e+03, 0.000000000000000000e+00, 0.000000000000000000e+00, 1.000000000000000000e+02
1.130000000000000000e+02, 5.078974000000000160e+03, 4.133332999999999629e+03, 4.094358999999999924e+03, 4.142564000000000306e+03, 5.033332999999999629e+03, 0.000000000000000000e+00, 0.000000000000000000e+00, 1.000000000000000000e+02
1.140000000000000000e+02, 5.098974000000000160e+03, 4.139487000000000080e+03, 4.095896999999999935e+03, 4.141025999999999840e+03, 5.056922999999999774e+03, 0.000000000000000000e+00, 0.000000000000000000e+00, 1.000000000000000000e+02
1.150000000000000000e+02, 5.108717999999999847e+03, 4.141537999999999556e+03, 4.089231000000000222e+03, 4.150256000000000313e+03, 5.080512999999999920e+03, 0.000000000000000000e+00, 0.000000000000000000e+00, 1.000000000000000000e+02
1.160000000000000000e+02, 5.110769000000000233e+03, 4.149743999999999687e+03, 4.095385000000000218e+03, 4.165640999999999622e+03, 5.096409999999999854e+03, 0.000000000000000000e+00, 0.000000000000000000e+00, 1.000000000000000000e+02
1.170000000000000000e+02, 5.112820999999999913e+03, 4.155896999999999935e+03, 4.103590000000000146e+03, 4.171282000000000153e+03, 5.111795000000000073e+03, 0.000000000000000000e+00, 0.000000000000000000e+00, 1.000000000000000000e+02
1.180000000000000000e+02, 5.124103000000000065e+03, 4.151795000000000073e+03, 4.102564000000000306e+03, 4.164103000000000065e+03, 5.136922999999999774e+03, 0.000000000000000000e+00, 0.000000000000000000e+00, 1.000000000000000000e+02
1.190000000000000000e+02, 5.142564000000000306e+03, 4.151795000000000073e+03, 4.103590000000000146e+03, 4.157435999999999694e+03, 5.158462000000000444e+03, 0.000000000000000000e+00, 0.000000000000000000e+00, 1.000000000000000000e+02
1.200000000000000000e+02, 5.151795000000000073e+03, 4.153845999999999549e+03, 4.095385000000000218e+03, 4.160000000000000000e+03, 5.165127999999999702e+03, 0.000000000000000000e+00, 0.000000000000000000e+00, 1.000000000000000000e+02
1.210000000000000000e+02, 5.155896999999999935e+03, 4.147692000000000007e+03, 4.084614999999999782e+03, 4.162564000000000306e+03, 5.176922999999999774e+03, 0.000000000000000000e+00, 0.000000000000000000e+00, 1.000000000000000000e+02
1.220000000000000000e+02, 5.165127999999999702e+03, 4.147692000000000007e+03, 4.090768999999999778e+03, 4.156409999999999854e+03, 5.196922999999999774e+03, 0.000000000000000000e+00, 0.000000000000000000e+00, 1.000000000000000000e+02
1.230000000000000000e+02, 5.180000000000000000e+03, 4.162051000000000386e+03, 4.106154000000000451e+03, 4.157435999999999694e+03, 5.213845999999999549e+03, 0.000000000000000000e+00, 0.000000000000000000e+00, 1.000000000000000000e+02
1.240000000000000000e+02, 5.188717999999999847e+03, 4.174359000000000378e+03, 4.105640999999999622e+03, 4.169230999999999767e+03, 5.216922999999999774e+03, 0.000000000000000000e+00, 0.000000000000000000e+00, 1.000000000000000000e+02
1.250000000000000000e+02, 5.184614999999999782e+03, 4.168204999999999927e+03, 4.102051000000000386e+03, 4.162051000000000386e+03, 5.218462000000000444e+03, 0.000000000000000000e+00, 0.000000000000000000e+00, 1.000000000000000000e+02
1.260000000000000000e+02, 5.189743999999999687e+03, 4.164103000000000065e+03, 4.110256000000000313e+03, 4.146154000000000451e+03, 5.244614999999999782e+03, 0.000000000000000000e+00, 0.000000000000000000e+00, 1.000000000000000000e+02
1.270000000000000000e+02, 5.210769000000000233e+03, 4.174359000000000378e+03, 4.109743999999999687e+03, 4.152820999999999913e+03, 5.272307999999999993e+03, 0.000000000000000000e+00, 0.000000000000000000e+00, 1.000000000000000000e+02
0.000000000000000000e+00, 5.223077000000000226e+03, 4.178462000000000444e+03, 4.107179000000000087e+03, 4.165127999999999702e+03, 5.277948999999999614e+03, 0.000000000000000000e+00, 0.000000000000000000e+00, 1.000000000000000000e+02
1.000000000000000000e+00, 5.216409999999999854e+03, 4.170256000000000313e+03, 4.107179000000000087e+03, 4.161537999999999556e+03, 5.274872000000000298e+03, 0.000000000000000000e+00, 0.000000000000000000e+00, 1.000000000000000000e+02
2.000000000000000000e+00, 5.215896999999999935e+03, 4.174359000000000378e+03, 4.098462000000000444e+03, 4.160000000000000000e+03, 5.279487000000000080e+03, 0.000000000000000000e+00, 0.000000000000000000e+00, 1.000000000000000000e+02
3.000000000000000000e+00, 5.238974000000000160e+03, 4.188717999999999847e+03, 4.095385000000000218e+03, 4.166154000000000451e+03, 5.307179000000000087e+03, 0.000000000000000000e+00, 0.000000000000000000e+00, 1.000000000000000000e+02
4.000000000000000000e+00, 5.259487000000000080e+03, 4.196922999999999774e+03, 4.098974000000000160e+03, 4.156922999999999774e+03, 5.335385000000000218e+03, 0.000000000000000000e+00, 0.000000000000000000e+00, 1.000000000000000000e+02
5.000000000000000000e+00, 5.267692000000000007e+03, 4.196922999999999774e+03, 4.103077000000000226e+03, 4.151795000000000073e+03, 5.338974000000000160e+03, 0.000000000000000000e+00, 1.000000000000000000e+00, 1.000000000000000000e+02
6.000000000000000000e+00, 5.275896999999999935e+03, 4.205127999999999702e+03, 4.107179000000000087e+03, 4.167179000000000087e+03, 5.336409999999999854e+03, 0.000000000000000000e+00, 1.000000000000000000e+00, 1.000000000000000000e+02
7.000000000000000000e+00, 5.275896999999999935e+03, 4.198974000000000160e+03, 4.099487000000000080e+03, 4.164103000000000065e+03, 5.340512999999999920e+03, 0.000000000000000000e+00, 1.000000000000000000e+00, 1.000000000000000000e+02
8.000000000000000000e+00, 5.281025999999999840e+03, 4.182564000000000306e+03, 4.089744000000000142e+03, 4.145640999999999622e+03, 5.349743999999999687e+03, 0.000000000000000000e+00, 1.000000000000000000e+00, 1.000000000000000000e+02
9.000000000000000000e+00, 5.302564000000000306e+03, 4.194872000000000298e+03, 4.096409999999999854e+03, 4.152307999999999993e+03, 5.364103000000000065e+03, 0.000000000000000000e+00, 1.000000000000000000e+00, 1.000000000000000000e+02
1.000000000000000000e+01, 5.315385000000000218e+03, 4.215385000000000218e+03, 4.105127999999999702e+03, 4.167692000000000007e+03, 5.382564000000000306e+03, 0.000000000000000000e+00, 1.000000000000000000e+00, 1.000000000000000000e+02
1.100000000000000000e+01, 5.309743999999999687e+03, 4.205127999999999702e+03, 4.113332999999999629e+03, 4.157435999999999694e+03, 5.393845999999999549e+03, 0.000000000000000000e+00, 1.000000000000000000e+00, 1.000000000000000000e+02
1.200000000000000000e+01, 5.307692000000000007e+03, 4.192820999999999913e+03, 4.112307999999999993e+03, 4.145127999999999702e+03, 5.391795000000000073e+03, 0.000000000000000000e+00, 1.000000000000000000e+00, 1.000000000000000000e+02
1.300000000000000000e+01, 5.309743999999999687e+03, 4.196922999999999774e+03, 4.092820999999999913e+03, 4.148204999999999927e+03, 5.405127999999999702e+03, 0.000000000000000000e+00, 1.000000000000000000e+00, 1.000000000000000000e+02
1.400000000000000000e+01, 5.307692000000000007e+03, 4.186667000000000371e+03, 4.080512999999999920e+03, 4.146667000000000371e+03, 5.425640999999999622e+03, 0.000000000000000000e+00, 1.000000000000000000e+00, 1.000000000000000000e+02
1.500000000000000000e+01, 5.316922999999999774e+03, 4.182564000000000306e+03, 4.085128000000000156e+03, 4.142564000000000306e+03, 5.425127999999999702e+03, 0.000000000000000000e+00, 1.000000000000000000e+00, 1.000000000000000000e+02
1.600000000000000000e+01, 5.332820999999999913e+03, 4.190769000000000233e+03, 4.083077000000000226e+03, 4.148204999999999927e+03, 5.420512999999999920e+03, 0.000000000000000000e+00, 1.000000000000000000e+00, 1.000000000000000000e+02
1.700000000000000000e+01, 5.327692000000000007e+03, 4.188717999999999847e+03, 4.072307999999999993e+03, 4.148717999999999847e+03, 5.417435999999999694e+03, 0.000000000000000000e+00, 1.000000000000000000e+00, 1.000000000000000000e+02
1.800000000000000000e+01, 5.321537999999999556e+03, 4.184614999999999782e+03, 4.082563999999999851e+03, 4.147179000000000087e+03, 5.421537999999999556e+03, 0.000000000000000000e+00, 1.000000000000000000e+00, 1.000000000000000000e+02
1.900000000000000000e+01, 5.334359000000000378e+03, 4.196922999999999774e+03, 4.095896999999999935e+03, 4.158462000000000444e+03, 5.438974000000000160e+03, 0.000000000000000000e+00, 1.000000000000000000e+00, 1.000000000000000000e+02
2.000000000000000000e+01, 5.351282000000000153e+03, 4.205127999999999702e+03, 4.095896999999999935e+03, 4.163077000000000226e+03, 5.458974000000000160e+03, 0.000000000000000000e+00, 1.000000000000000000e+00, 1.000000000000000000e+02
2.100000000000000000e+01, 5.362564000000000306e+03, 4.192820999999999913e+03, 4.102564000000000306e+03, 4.158974000000000160e+03, 5.473332999999999629e+03, 0.000000000000000000e+00, 1.000000000000000000e+00, 1.000000000000000000e+02
2.200000000000000000e+01, 5.359487000000000080e+03, 4.186667000000000371e+03, 4.104103000000000065e+03, 4.155896999999999935e+03, 5.467692000000000007e+03, 0.000000000000000000e+00, 1.000000000000000000e+00, 1.000000000000000000e+02
2.300000000000000000e+01, 5.355896999999999935e+03, 4.198974000000000160e+03, 4.105127999999999702e+03, 4.146154000000000451e+03, 5.457948999999999614e+03, 0.000000000000000000e+00, 1.000000000000000000e+00, 1.000000000000000000e+02
2.400000000000000000e+01, 5.367692000000000007e+03, 4.205127999999999702e+03, 4.109230999999999767e+03, 4.144614999999999782e+03, 5.466667000000000371e+03, 0.000000000000000000e+00, 1.000000000000000000e+00, 1.000000000000000000e+02
2.500000000000000000e+01, 5.376922999999999774e+03, 4.196922999999999774e+03, 4.103077000000000226e+03, 4.161537999999999556e+03, 5.477948999999999614e+03, 0.000000000000000000e+00, 1.000000000000000000e+00, 1.000000000000000000e+02
2.600000000000000000e+01, 5.383590000000000146e+03, 4.192820999999999913e+03, 4.104614999999999782e+03, 4.167179000000000087e+03, 5.480512999999999920e+03, 0.000000000000000000e+00, 1.000000000000000000e+00, 1.000000000000000000e+02
2.700000000000000000e+01, 5.387179000000000087e+03, 4.201025999999999840e+03, 4.114872000000000298e+03, 4.157948999999999614e+03, 5.482564000000000306e+03, 0.000000000000000000e+00, 1.000000000000000000e+00, 1.000000000000000000e+02
2.800000000000000000e+01, 5.384614999999999782e+03, 4.201025999999999840e+03, 4.119487000000000080e+03, 4.161025999999999840e+03, 5.491282000000000153e+03, 0.000000000000000000e+00, 1.000000000000000000e+00, 1.000000000000000000e+02
2.900000000000000000e+01, 5.383590000000000146e+03, 4.194872000000000298e+03, 4.117435999999999694e+03, 4.166154000000000451e+03, 5.494359000000000378e+03, 0.000000000000000000e+00, 1.000000000000000000e+00, 1.000000000000000000e+02
3.000000000000000000e+01, 5.389743999999999687e+03, 4.194872000000000298e+03, 4.118974000000000160e+03, 4.160000000000000000e+03, 5.488204999999999927e+03, 0.000000000000000000e+00, 1.000000000000000000e+00, 1.000000000000000000e+02
3.100000000000000000e+01, 5.400000000000000000e+03, 4.198974000000000160e+03, 4.123077000000000226e+03, 4.168204999999999927e+03, 5.492307999999999993e+03, 0.000000000000000000e+00, 1.000000000000000000e+00, 1.000000000000000000e+02
3.200000000000000000e+01, 5.402051000000000386e+03, 4.201025999999999840e+03, 4.116922999999999774e+03, 4.172820999999999913e+03, 5.498974000000000160e+03, 0.000000000000000000e+00, 1.000000000000000000e+00, 1.000000000000000000e+02
3.300000000000000000e+01, 5.394359000000000378e+03, 4.194872000000000298e+03, 4.111795000000000073e+03, 4.147692000000000007e+03, 5.502051000000000386e+03, 0.000000000000000000e+00, 1.000000000000000000e+00, 1.000000000000000000e+02
3.400000000000000000e+01, 5.386667000000000371e+03, 4.192820999999999913e+03, 4.111795000000000073e+03, 4.133845999999999549e+03, 5.507179000000000087e+03, 0.000000000000000000e+00, 1.000000000000000000e+00, 1.000000000000000000e+02
3.500000000000000000e+01, 5.384103000000000065e+03, 4.188717999999999847e+03, 4.105127999999999702e+03, 4.153332999999999629e+03, 5.509230999999999767e+03, 0.000000000000000000e+00, 1.000000000000000000e+00, 1.000000000000000000e+02
3.600000000000000000e+01, 5.385640999999999622e+03, 4.180512999999999920e+03, 4.104614999999999782e+03, 4.165640999999999622e+03, 5.518462000000000444e+03, 0.000000000000000000e+00, 1.000000000000000000e+00, 1.000000000000000000e+02
3.700000000000000000e+01, 5.381025999999999840e+03, 4.188717999999999847e+03, 4.108717999999999847e+03, 4.151282000000000153e+03, 5.521537999999999556e+03, 0.000000000000000000e+00, 1.000000000000000000e+00, 1.000000000000000000e+02
3.800000000000000000e+01, 5.377435999999999694e+03, 4.198974000000000160e+03, 4.109230999999999767e+03, 4.145640999999999622e+03, 5.520000000000000000e+03, 0.000000000000000000e+00, 1.000000000000000000e+00, 1.000000000000000000e+02
3.900000000000000000e+01, 5.387692000000000007e+03, 4.188717999999999847e+03, 4.118974000000000160e+03, 4.165640999999999622e+03, 5.534359000000000378e+03, 0.000000000000000000e+00, 1.000000000000000000e+00, 1.000000000000000000e+02
4.000000000000000000e+01, 5.391282000000000153e+03, 4.184614999999999782e+03, 4.130769000000000233e+03, 4.174359000000000378e+03, 5.542564000000000306e+03, 0.000000000000000000e+00, 1.000000000000000000e+00, 1.000000000000000000e+02
4.100000000000000000e+01, 5.389743999999999687e+03, 4.198974000000000160e+03, 4.129743999999999687e+03, 4.166667000000000371e+03, 5.544103000000000065e+03, 0.000000000000000000e+00, 1.000000000000000000e+00, 1.000000000000000000e+02
4.200000000000000000e+01, 5.396922999999999774e+03, 4.203077000000000226e+03, 4.118974000000000160e+03, 4.170256000000000313e+03, 5.548204999999999927e+03, 0.000000000000000000e+00, 1.000000000000000000e+00, 1.000000000000000000e+02
4.300000000000000000e+01, 5.402564000000000306e+03, 4.198974000000000160e+03, 4.110769000000000233e+03, 4.170769000000000233e+03, 5.557435999999999694e+03, 0.000000000000000000e+00, 1.000000000000000000e+00, 1.000000000000000000e+02
4.400000000000000000e+01, 5.405127999999999702e+03, 4.209230999999999767e+03, 4.114359000000000378e+03, 4.155385000000000218e+03, 5.580512999999999920e+03, 0.000000000000000000e+00, 1.000000000000000000e+00, 1.000000000000000000e+02
4.500000000000000000e+01, 5.405640999999999622e+03, 4.217435999999999694e+03, 4.118462000000000444e+03, 4.160512999999999920e+03, 5.596409999999999854e+03, 0.000000000000000000e+00, 1.000000000000000000e+00, 1.000000000000000000e+02
4.600000000000000000e+01, 5.407179000000000087e+03, 4.209230999999999767e+03, 4.120000000000000000e+03, 4.179487000000000080e+03, 5.589230999999999767e+03, 0.000000000000000000e+00, 1.000000000000000000e+00, 1.000000000000000000e+02
4.700000000000000000e+01, 5.404614999999999782e+03, 4.201025999999999840e+03, 4.122564000000000306e+03, 4.166667000000000371e+03, 5.565640999999999622e+03, 0.000000000000000000e+00, 1.000000000000000000e+00, 1.000000000000000000e+02
4.800000000000000000e+01, 5.395896999999999935e+03, 4.205127999999999702e+03, 4.124103000000000065e+03, 4.161537999999999556e+03, 5.554872000000000298e+03, 0.000000000000000000e+00, 1.000000000000000000e+00, 1.000000000000000000e+02
4.900000000000000000e+01, 5.398462000000000444e+03, 4.211282000000000153e+03, 4.124103000000000065e+03, 4.179487000000000080e+03, 5.570769000000000233e+03, 0.000000000000000000e+00, 1.000000000000000000e+00, 1.000000000000000000e+02
5.000000000000000000e+01, 5.410256000000000313e+03, 4.203077000000000226e+03, 4.119487000000000080e+03, 4.171795000000000073e+03, 5.588204999999999927e+03, 0.000000000000000000e+00, 1.000000000000000000e+00, 1.000000000000000000e+02
5.100000000000000000e+01, 5.423590000000000146e+03, 4.198974000000000160e+03, 4.132820999999999913e+03, 4.162564000000000306e+03, 5.601537999999999556e+03, 0.000000000000000000e+00, 1.000000000000000000e+00, 1.000000000000000000e+02
5.200000000000000000e+01, 5.423077000000000226e+03, 4.217435999999999694e+03, 4.151795000000000073e+03, 4.183590000000000146e+03, 5.610256000000000313e+03, 0.000000000000000000e+00, 1.000000000000000000e+00, 1.000000000000000000e+02
5.300000000000000000e+01, 5.405640999999999622e+03, 4.227692000000000007e+03, 4.145640999999999622e+03, 4.193845999999999549e+03, 5.602564000000000306e+03, 0.000000000000000000e+00, 1.000000000000000000e+00, 1.000000000000000000e+02
5.400000000000000000e+01, 5.399487000000000080e+03, 4.217435999999999694e+03, 4.138462000000000444e+03, 4.177948999999999614e+03, 5.595385000000000218e+03, 0.000000000000000000e+00, 1.000000000000000000e+00, 1.000000000000000000e+02
5.500000000000000000e+01, 5.405127999999999702e+03, 4.213332999999999629e+03, 4.138462000000000444e+03, 4.161537999999999556e+03, 5.589230999999999767e+03, 0.000000000000000000e+00, 1.000000000000000000e+00, 1.000000000000000000e+02
5.600000000000000000e+01, 5.410769000000000233e+03, 4.217435999999999694e+03, 4.128717999999999847e+03, 4.169230999999999767e+03, 5.583077000000000226e+03, 0.000000000000000000e+00, 1.000000000000000000e+00, 1.000000000000000000e+02
5.700000000000000000e+01, 5.408204999999999927e+03, 4.215385000000000218e+03, 4.124614999999999782e+03, 4.184103000000000065e+03, 5.588204999999999927e+03, 0.000000000000000000e+00, 1.000000000000000000e+00, 1.000000000000000000e+02
5.800000000000000000e+01, 5.396409999999999854e+03, 4.215385000000000218e+03, 4.136409999999999854e+03, 4.181025999999999840e+03, 5.588204999999999927e+03, 0.000000000000000000e+00, 1.000000000000000000e+00, 1.000000000000000000e+02
5.900000000000000000e+01, 5.388717999999999847e+03, 4.219487000000000080e+03, 4.140000000000000000e+03, 4.180512999999999920e+03, 5.580512999999999920e+03, 0.000000000000000000e+00, 1.000000000000000000e+00, 1.000000000000000000e+02
6.000000000000000000e+01, 5.387692000000000007e+03, 4.219487000000000080e+03, 4.134359000000000378e+03, 4.180000000000000000e+03, 5.575385000000000218e+03, 0.000000000000000000e+00, 1.000000000000000000e+00, 1.000000000000000000e+02
6.100000000000000000e+01, 5.393332999999999629e+03, 4.221537999999999556e+03, 4.138974000000000160e+03, 4.175896999999999935e+03, 5.587692000000000007e+03, 0.000000000000000000e+00, 1.000000000000000000e+00, 1.000000000000000000e+02
6.200000000000000000e+01, 5.398974000000000160e+03, 4.231795000000000073e+03, 4.141537999999999556e+03, 4.192307999999999993e+03, 5.598462000000000444e+03, 0.000000000000000000e+00, 1.000000000000000000e+00, 1.000000000000000000e+02
6.300000000000000000e+01, 5.390256000000000313e+03, 4.233845999999999549e+03, 4.141537999999999556e+03, 4.200000000000000000e+03, 5.594359000000000378e+03, 0.000000000000000000e+00, 1.000000000000000000e+00, 1.000000000000000000e+02
6.400000000000000000e+01, 5.376922999999999774e+03, 4.219487000000000080e+03, 4.157948999999999614e+03, 4.177435999999999694e+03, 5.604103000000000065e+03, 0.000000000000000000e+00, 1.000000000000000000e+00, 1.000000000000000000e+02
6.500000000000000000e+01, 5.370256000000000313e+03, 4.213332999999999629e+03, 4.159487000000000080e+03, 4.168717999999999847e+03, 5.612820999999999913e+03, 0.000000000000000000e+00, 1.000000000000000000e+00, 1.000000000000000000e+02
6.600000000000000000e+01, 5.368204999999999927e+03, 4.223590000000000146e+03, 4.145640999999999622e+03, 4.178974000000000160e+03, 5.602051000000000386e+03, 0.000000000000000000e+00, 1.000000000000000000e+00, 1.000000000000000000e+02
6.700000000000000000e+01, 5.372307999999999993e+03, 4.229743999999999687e+03, 4.151795000000000073e+03, 4.183077000000000226e+03, 5.600000000000000000e+03, 0.000000000000000000e+00, 1.000000000000000000e+00, 1.000000000000000000e+02
6.800000000000000000e+01, 5.378462000000000444e+03, 4.235896999999999935e+03, 4.162051000000000386e+03, 4.181537999999999556e+03, 5.608204999999999927e+03, 0.000000000000000000e+00, 1.000000000000000000e+00, 1.000000000000000000e+02
6.900000000000000000e+01, 5.379487000000000080e+03, 4.246154000000000451e+03, 4.158974000000000160e+03, 4.179487000000000080e+03, 5.616409999999999854e+03, 0.000000000000000000e+00, 1.000000000000000000e+00, 1.000000000000000000e+02
7.000000000000000000e+01, 5.366667000000000371e+03, 4.240000000000000000e+03, 4.153332999999999629e+03, 4.181025999999999840e+03, 5.614359000000000378e+03, 0.000000000000000000e+00, 1.000000000000000000e+00, 1.000000000000000000e+02
7.100000000000000000e+01, 5.348204999999999927e+03, 4.229743999999999687e+03, 4.150256000000000313e+03, 4.182564000000000306e+03, 5.597435999999999694e+03, 0.000000000000000000e+00, 1.000000000000000000e+00, 1.000000000000000000e+02
7.200000000000000000e+01, 5.348717999999999847e+03, 4.231795000000000073e+03, 4.154359000000000378e+03, 4.178974000000000160e+03, 5.602051000000000386e+03, 0.000000000000000000e+00, 1.000000000000000000e+00, 1.000000000000000000e+02
7.300000000000000000e+01, 5.355896999999999935e+03, 4.235896999999999935e+03, 4.154359000000000378e+03, 4.187179000000000087e+03, 5.629230999999999767e+03, 0.000000000000000000e+00, 1.000000000000000000e+00, 1.000000000000000000e+02
7.400000000000000000e+01, 5.347179000000000087e+03, 4.235896999999999935e+03, 4.155896999999999935e+03, 4.197948999999999614e+03, 5.635385000000000218e+03, 0.000000000000000000e+00, 1.000000000000000000e+00, 1.000000000000000000e+02
7.500000000000000000e+01, 5.327692000000000007e+03, 4.233845999999999549e+03, 4.159487000000000080e+03, 4.188204999999999927e+03, 5.608204999999999927e+03, 0.000000000000000000e+00, 1.000000000000000000e+00, 1.000000000000000000e+02
7.600000000000000000e+01, 5.327179000000000087e+03, 4.231795000000000073e+03, 4.159487000000000080e+03, 4.189743999999999687e+03, 5.594872000000000298e+03, 0.000000000000000000e+00, 1.000000000000000000e+00, 1.000000000000000000e+02
7.700000000000000000e+01, 5.343077000000000226e+03, 4.233845999999999549e+03, 4.161025999999999840e+03, 4.205127999999999702e+03, 5.612307999999999993e+03, 0.000000000000000000e+00, 1.000000000000000000e+00, 1.000000000000000000e+02
7.800000000000000000e+01, 5.343077000000000226e+03, 4.229743999999999687e+03, 4.155385000000000218e+03, 4.193332999999999629e+03, 5.608717999999999847e+03, 0.000000000000000000e+00, 1.000000000000000000e+00, 1.000000000000000000e+02
7.900000000000000000e+01, 5.326667000000000371e+03, 4.223590000000000146e+03, 4.145127999999999702e+03, 4.183590000000000146e+03, 5.587692000000000007e+03, 0.000000000000000000e+00, 1.000000000000000000e+00, 1.000000000000000000e+02
8.000000000000000000e+01, 5.302564000000000306e+03, 4.227692000000000007e+03, 4.140000000000000000e+03, 4.192307999999999993e+03, 5.576922999999999774e+03, 0.000000000000000000e+00, 1.000000000000000000e+00, 1.000000000000000000e+02
8.100000000000000000e+01, 5.283590000000000146e+03, 4.229743999999999687e+03, 4.135896999999999935e+03, 4.188204999999999927e+03, 5.572820999999999913e+03, 0.000000000000000000e+00, 1.000000000000000000e+00, 1.000000000000000000e+02
8.200000000000000000e+01, 5.288204999999999927e+03, 4.223590000000000146e+03, 4.135385000000000218e+03, 4.180000000000000000e+03, 5.578974000000000160e+03, 0.000000000000000000e+00, 1.000000000000000000e+00, 1.000000000000000000e+02
8.300000000000000000e+01, 5.299487000000000080e+03, 4.223590000000000146e+03, 4.143077000000000226e+03, 4.188717999999999847e+03, 5.588717999999999847e+03, 0.000000000000000000e+00, 1.000000000000000000e+00, 1.000000000000000000e+02
8.400000000000000000e+01, 5.303077000000000226e+03, 4.235896999999999935e+03, 4.162051000000000386e+03, 4.204103000000000065e+03, 5.598462000000000444e+03, 0.000000000000000000e+00, 1.000000000000000000e+00, 1.000000000000000000e+02
8.500000000000000000e+01, 5.299487000000000080e+03, 4.237948999999999614e+03, 4.173332999999999629e+03, 4.204614999999999782e+03, 5.606667000000000371e+03, 0.000000000000000000e+00, 1.000000000000000000e+00, 1.000000000000000000e+02
8.600000000000000000e+01, 5.280000000000000000e+03, 4.229743999999999687e+03, 4.163077000000000226e+03, 4.198974000000000160e+03, 5.600512999999999920e+03, 0.000000000000000000e+00, 1.000000000000000000e+00, 1.000000000000000000e+02
8.700000000000000000e+01, 5.261025999999999840e+03, 4.237948999999999614e+03, 4.159487000000000080e+03, 4.201537999999999556e+03, 5.589230999999999767e+03, 0.000000000000000000e+00, 1.000000000000000000e+00, 1.000000000000000000e+02
8.800000000000000000e+01, 5.262051000000000386e+03, 4.258462000000000444e+03, 4.169230999999999767e+03, 4.196922999999999774e+03, 5.582564000000000306e+03, 0.000000000000000000e+00, 1.000000000000000000e+00, 1.000000000000000000e+02
8.900000000000000000e+01, 5.268717999999999847e+03, 4.254359000000000378e+03, 4.168717999999999847e+03, 4.185640999999999622e+03, 5.583590000000000146e+03, 0.000000000000000000e+00, 1.000000000000000000e+00, 1.000000000000000000e+02
9.000000000000000000e+01, 5.263590000000000146e+03, 4.246154000000000451e+03, 4.160512999999999920e+03, 4.189743999999999687e+03, 5.585640999999999622e+03, 0.000000000000000000e+00, 1.000000000000000000e+00, 1.000000000000000000e+02
9.100000000000000000e+01, 5.246667000000000371e+03, 4.258462000000000444e+03, 4.148717999999999847e+03, 4.195385000000000218e+03, 5.570769000000000233e+03, 0.000000000000000000e+00, 1.000000000000000000e+00, 1.000000000000000000e+02
9.200000000000000000e+01, 5.240000000000000000e+03, 4.260512999999999920e+03, 4.142564000000000306e+03, 4.196409999999999854e+03, 5.564614999999999782e+03, 0.000000000000000000e+00, 1.000000000000000000e+00, 1.000000000000000000e+02
9.300000000000000000e+01, 5.239487000000000080e+03, 4.252307999999999993e+03, 4.144614999999999782e+03, 4.194872000000000298e+03, 5.578462000000000444e+03, 0.000000000000000000e+00, 1.000000000000000000e+00, 1.000000000000000000e+02
9.400000000000000000e+01, 5.230769000000000233e+03, 4.260512999999999920e+03, 4.145640999999999622e+03, 4.178974000000000160e+03, 5.574359000000000378e+03, 0.000000000000000000e+00, 1.000000000000000000e+00, 1.000000000000000000e+02
9.500000000000000000e+01, 5.216922999999999774e+03, 4.268717999999999847e+03, 4.140000000000000000e+03, 4.171795000000000073e+03, 5.552307999999999993e+03, 0.000000000000000000e+00, 1.000000000000000000e+00, 1.000000000000000000e+02
9.600000000000000000e+01, 5.197948999999999614e+03, 4.264614999999999782e+03, 4.143077000000000226e+03, 4.189230999999999767e+03, 5.549230999999999767e+03, 0.000000000000000000e+00, 1.000000000000000000e+00, 1.000000000000000000e+02
9.700000000000000000e+01, 5.186667000000000371e+03, 4.260512999999999920e+03, 4.156409999999999854e+03, 4.196922999999999774e+03, 5.560512999999999920e+03, 0.000000000000000000e+00, 1.000000000000000000e+00, 1.000000000000000000e+02
9.800000000000000000e+01, 5.181537999999999556e+03, 4.266667000000000371e+03, 4.149743999999999687e+03, 4.191282000000000153e+03, 5.539487000000000080e+03, 0.000000000000000000e+00, 1.000000000000000000e+00, 1.000000000000000000e+02
9.900000000000000000e+01, 5.169743999999999687e+03, 4.270769000000000233e+03, 4.133332999999999629e+03, 4.181537999999999556e+03, 5.500512999999999920e+03, 0.000000000000000000e+00, 1.000000000000000000e+00, 1.000000000000000000e+02
1.000000000000000000e+02, 5.157948999999999614e+03, 4.264614999999999782e+03, 4.137435999999999694e+03, 4.167179000000000087e+03, 5.493845999999999549e+03, 0.000000000000000000e+00, 1.000000000000000000e+00, 1.000000000000000000e+02
1.010000000000000000e+02, 5.148717999999999847e+03, 4.266667000000000371e+03, 4.137435999999999694e+03, 4.174872000000000298e+03, 5.500000000000000000e+03, 0.000000000000000000e+00, 1.000000000000000000e+00, 1.000000000000000000e+02
1.020000000000000000e+02, 5.135896999999999935e+03, 4.274872000000000298e+03, 4.129743999999999687e+03, 4.200000000000000000e+03, 5.498974000000000160e+03, 0.000000000000000000e+00, 1.000000000000000000e+00, 1.000000000000000000e+02
1.030000000000000000e+02, 5.123590000000000146e+03, 4.268717999999999847e+03, 4.133332999999999629e+03, 4.194359000000000378e+03, 5.486154000000000451e+03, 0.000000000000000000e+00, 1.000000000000000000e+00, 1.000000000000000000e+02
1.040000000000000000e+02, 5.115385000000000218e+03, 4.258462000000000444e+03, 4.131282000000000153e+03, 4.167179000000000087e+03, 5.463077000000000226e+03, 0.000000000000000000e+00, 1.000000000000000000e+00, 1.000000000000000000e+02
1.050000000000000000e+02, 5.109230999999999767e+03, 4.260512999999999920e+03, 4.120512999999999920e+03, 4.163077000000000226e+03, 5.453332999999999629e+03, 0.000000000000000000e+00, 1.000000000000000000e+00, 1.000000000000000000e+02
1.060000000000000000e+02, 5.098974000000000160e+03, 4.266667000000000371e+03, 4.119487000000000080e+03, 4.176409999999999854e+03, 5.452307999999999993e+03, 0.000000000000000000e+00, 1.000000000000000000e+00, 1.000000000000000000e+02
1.070000000000000000e+02, 5.098974000000000160e+03, 4.270769000000000233e+03, 4.127692000000000007e+03, 4.188204999999999927e+03, 5.456409999999999854e+03, 0.000000000000000000e+00, 1.000000000000000000e+00, 1.000000000000000000e+02
1.080000000000000000e+02, 5.103590000000000146e+03, 4.274872000000000298e+03, 4.128717999999999847e+03, 4.190256000000000313e+03, 5.455896999999999935e+03, 0.000000000000000000e+00, 1.000000000000000000e+00, 1.000000000000000000e+02
1.090000000000000000e+02, 5.096409999999999854e+03, 4.270769000000000233e+03, 4.126667000000000371e+03, 4.178974000000000160e+03, 5.437948999999999614e+03, 0.000000000000000000e+00, 1.000000000000000000e+00, 1.000000000000000000e+02
1.100000000000000000e+02, 5.087179000000000087e+03, 4.268717999999999847e+03, 4.138974000000000160e+03, 4.175385000000000218e+03, 5.431282000000000153e+03, 0.000000000000000000e+00, 1.000000000000000000e+00, 1.000000000000000000e+02
1.110000000000000000e+02, 5.085127999999999702e+03, 4.278974000000000160e+03, 4.148204999999999927e+03, 4.185127999999999702e+03, 5.447179000000000087e+03, 0.000000000000000000e+00, 1.000000000000000000e+00, 1.000000000000000000e+02
1.120000000000000000e+02, 5.093845999999999549e+03, 4.285127999999999702e+03, 4.156922999999999774e+03, 4.202564000000000306e+03, 5.467179000000000087e+03, 0.000000000000000000e+00, 1.000000000000000000e+00, 1.000000000000000000e+02
1.130000000000000000e+02, 5.098462000000000444e+03, 4.285127999999999702e+03, 4.169743999999999687e+03, 4.209230999999999767e+03, 5.466667000000000371e+03, 0.000000000000000000e+00, 1.000000000000000000e+00, 1.000000000000000000e+02
1.140000000000000000e+02, 5.089743999999999687e+03, 4.278974000000000160e+03, 4.167179000000000087e+03, 4.195385000000000218e+03, 5.459487000000000080e+03, 0.000000000000000000e+00, 1.000000000000000000e+00, 1.000000000000000000e+02
1.150000000000000000e+02, 5.088717999999999847e+03, 4.276922999999999774e+03, 4.157948999999999614e+03, 4.187692000000000007e+03, 5.475385000000000218e+03, 0.000000000000000000e+00, 1.000000000000000000e+00, 1.000000000000000000e+02
1.160000000000000000e+02, 5.091282000000000153e+03, 4.285127999999999702e+03, 4.150256000000000313e+03, 4.192820999999999913e+03, 5.472307999999999993e+03, 0.000000000000000000e+00, 1.000000000000000000e+00, 1.000000000000000000e+02
1.170000000000000000e+02, 5.089743999999999687e+03, 4.289230999999999767e+03, 4.145127999999999702e+03, 4.194359000000000378e+03, 5.444103000000000065e+03, 0.000000000000000000e+00, 1.000000000000000000e+00, 1.000000000000000000e+02
1.180000000000000000e+02, 5.089743999999999687e+03, 4.287179000000000087e+03, 4.148717999999999847e+03, 4.194872000000000298e+03, 5.443077000000000226e+03, 0.000000000000000000e+00, 1.000000000000000000e+00, 1.000000000000000000e+02
1.190000000000000000e+02, 5.085640999999999622e+03, 4.293332999999999629e+03, 4.149230999999999767e+03, 4.197948999999999614e+03, 5.448717999999999847e+03, 0.000000000000000000e+00, 1.000000000000000000e+00, 1.000000000000000000e+02
1.200000000000000000e+02, 5.084614999999999782e+03, 4.291282000000000153e+03, 4.147692000000000007e+03, 4.195385000000000218e+03, 5.433332999999999629e+03, 0.000000000000000000e+00, 1.000000000000000000e+00, 1.000000000000000000e+02
1.210000000000000000e+02, 5.088717999999999847e+03, 4.281025999999999840e+03, 4.154872000000000298e+03, 4.187179000000000087e+03, 5.415896999999999935e+03, 0.000000000000000000e+00, 1.000000000000000000e+00, 1.000000000000000000e+02
1.220000000000000000e+02, 5.084103000000000065e+03, 4.287179000000000087e+03, 4.161537999999999556e+03, 4.193332999999999629e+03, 5.417948999999999614e+03, 0.000000000000000000e+00, 1.000000000000000000e+00, 1.000000000000000000e+02
1.230000000000000000e+02, 5.069743999999999687e+03, 4.297435999999999694e+03, 4.155385000000000218e+03, 4.208204999999999927e+03, 5.425127999999999702e+03, 0.000000000000000000e+00, 1.000000000000000000e+00, 1.000000000000000000e+02
1.240000000000000000e+02, 5.053845999999999549e+03, 4.289230999999999767e+03, 4.148204999999999927e+03, 4.203077000000000226e+03, 5.415385000000000218e+03, 0.000000000000000000e+00, 1.000000000000000000e+00, 1.000000000000000000e+02
1.250000000000000000e+02, 5.047179000000000087e+03, 4.285127999999999702e+03, 4.157948999999999614e+03, 4.195385000000000218e+03, 5.406667000000000371e+03, 0.000000000000000000e+00, 1.000000000000000000e+00, 1.000000000000000000e+02
1.260000000000000000e+02, 5.045127999999999702e+03, 4.297435999999999694e+03, 4.160512999999999920e+03, 4.195896999999999935e+03, 5.407179000000000087e+03, 0.000000000000000000e+00, 1.000000000000000000e+00, 1.000000000000000000e+02
1.270000000000000000e+02, 5.034872000000000298e+03, 4.297435999999999694e+03, 4.146154000000000451e+03, 4.188717999999999847e+03, 5.401537999999999556e+03, 0.000000000000000000e+00, 1.000000000000000000e+00, 1.000000000000000000e+02
0.000000000000000000e+00, 5.025640999999999622e+03, 4.281025999999999840e+03, 4.143590000000000146e+03, 4.185127999999999702e+03, 5.397435999999999694e+03, 0.000000000000000000e+00, 1.000000000000000000e+00, 1.000000000000000000e+02
1.000000000000000000e+00, 5.021025999999999840e+03, 4.278974000000000160e+03, 4.147179000000000087e+03, 4.187179000000000087e+03, 5.393332999999999629e+03, 0.000000000000000000e+00, 1.000000000000000000e+00, 1.000000000000000000e+02
2.000000000000000000e+00, 5.013845999999999549e+03, 4.287179000000000087e+03, 4.150769000000000233e+03, 4.189230999999999767e+03, 5.383590000000000146e+03, 0.000000000000000000e+00, 1.000000000000000000e+00, 1.000000000000000000e+02
3.000000000000000000e+00, 5.004103000000000065e+03, 4.287179000000000087e+03, 4.156409999999999854e+03, 4.196409999999999854e+03, 5.366154000000000451e+03, 0.000000000000000000e+00, 1.000000000000000000e+00, 1.000000000000000000e+02
4.000000000000000000e+00, 5.007179000000000087e+03, 4.285127999999999702e+03, 4.156409999999999854e+03, 4.201537999999999556e+03, 5.360512999999999920e+03, 0.000000000000000000e+00, 1.000000000000000000e+00, 1.000000000000000000e+02
5.000000000000000000e+00, 5.022564000000000306e+03, 4.285127999999999702e+03, 4.152307999999999993e+03, 4.194872000000000298e+03, 5.376409999999999854e+03, 0.000000000000000000e+00, 1.000000000000000000e+00, 1.000000000000000000e+02
6.000000000000000000e+00, 5.022564000000000306e+03, 4.287179000000000087e+03, 4.148717999999999847e+03, 4.190256000000000313e+03, 5.375385000000000218e+03, 0.000000000000000000e+00, 1.000000000000000000e+00, 1.000000000000000000e+02
7.000000000000000000e+00, 5.010769000000000233e+03, 4.283077000000000226e+03, 4.150769000000000233e+03, 4.196409999999999854e+03, 5.361537999999999556e+03, 0.000000000000000000e+00, 1.000000000000000000e+00, 1.000000000000000000e+02
8.000000000000000000e+00, 4.998974000000000160e+03, 4.276922999999999774e+03, 4.142564000000000306e+03, 4.196922999999999774e+03, 5.349743999999999687e+03, 0.000000000000000000e+00, 1.000000000000000000e+00, 1.000000000000000000e+02
9.000000000000000000e+00, 4.989230999999999767e+03, 4.276922999999999774e+03, 4.127179000000000087e+03, 4.184103000000000065e+03, 5.335896999999999935e+03, 0.000000000000000000e+00, 1.000000000000000000e+00, 1.000000000000000000e+02
1.000000000000000000e+01, 4.992820999999999913e+03, 4.278974000000000160e+03, 4.129743999999999687e+03, 4.174359000000000378e+03, 5.334359000000000378e+03, 0.000000000000000000e+00, 1.000000000000000000e+00, 1.000000000000000000e+02
1.100000000000000000e+01, 4.989743999999999687e+03, 4.281025999999999840e+03, 4.126667000000000371e+03, 4.183077000000000226e+03, 5.329743999999999687e+03, 0.000000000000000000e+00, 1.000000000000000000e+00, 1.000000000000000000e+02
1.200000000000000000e+01, 4.975896999999999935e+03, 4.278974000000000160e+03, 4.124103000000000065e+03, 4.194872000000000298e+03, 5.319487000000000080e+03, 0.000000000000000000e+00, 1.000000000000000000e+00, 1.000000000000000000e+02
1.300000000000000000e+01, 4.966667000000000371e+03, 4.278974000000000160e+03, 4.137948999999999614e+03, 4.193845999999999549e+03, 5.308204999999999927e+03, 0.000000000000000000e+00, 1.000000000000000000e+00, 1.000000000000000000e+02
1.400000000000000000e+01, 4.958974000000000160e+03, 4.285127999999999702e+03, 4.151282000000000153e+03, 4.186667000000000371e+03, 5.300000000000000000e+03, 0.000000000000000000e+00, 1.000000000000000000e+00, 1.000000000000000000e+02
1.500000000000000000e+01, 4.955896999999999935e+03, 4.283077000000000226e+03, 4.158974000000000160e+03, 4.189230999999999767e+03, 5.309743999999999687e+03, 0.000000000000000000e+00, 1.000000000000000000e+00, 1.000000000000000000e+02
1.600000000000000000e+01, 4.953845999999999549e+03, 4.274872000000000298e+03, 4.165640999999999622e+03, 4.198462000000000444e+03, 5.312307999999999993e+03, 0.000000000000000000e+00, 1.000000000000000000e+00, 1.000000000000000000e+02
1.700000000000000000e+01, 4.944103000000000065e+03, 4.283077000000000226e+03, 4.172820999999999913e+03, 4.208717999999999847e+03, 5.300000000000000000e+03, 0.000000000000000000e+00, 1.000000000000000000e+00, 1.000000000000000000e+02
1.800000000000000000e+01, 4.934872000000000298e+03, 4.289230999999999767e+03, 4.174872000000000298e+03, 4.203077000000000226e+03, 5.290256000000000313e+03, 0.000000000000000000e+00, 1.000000000000000000e+00, 1.000000000000000000e+02
1.900000000000000000e+01, 4.932820999999999913e+03, 4.278974000000000160e+03, 4.165127999999999702e+03, 4.194359000000000378e+03, 5.282051000000000386e+03, 0.000000000000000000e+00, 1.000000000000000000e+00, 1.000000000000000000e+02
2.000000000000000000e+01, 4.940512999999999920e+03, 4.276922999999999774e+03, 4.161025999999999840e+03, 4.209230999999999767e+03, 5.281537999999999556e+03, 0.000000000000000000e+00, 1.000000000000000000e+00, 1.000000000000000000e+02
2.100000000000000000e+01, 4.949230999999999767e+03, 4.285127999999999702e+03, 4.161537999999999556e+03, 4.210769000000000233e+03, 5.280512999999999920e+03, 0.000000000000000000e+00, 1.000000000000000000e+00, 1.000000000000000000e+02
2.200000000000000000e+01, 4.946667000000000371e+03, 4.270769000000000233e+03, 4.150256000000000313e+03, 4.190769000000000233e+03, 5.274872000000000298e+03, 0.000000000000000000e+00, 1.000000000000000000e+00, 1.000000000000000000e+02
2.300000000000000000e+01, 4.936922999999999774e+03, 4.256409999999999854e+03, 4.139487000000000080e+03, 4.192307999999999993e+03, 5.270256000000000313e+03, 0.000000000000000000e+00, 1.000000000000000000e+00, 1.000000000000000000e+02
2.400000000000000000e+01, 4.918462000000000444e+03, 4.260512999999999920e+03, 4.139487000000000080e+03, 4.193332999999999629e+03, 5.257435999999999694e+03, 0.000000000000000000e+00, 1.000000000000000000e+00, 1.000000000000000000e+02
2.500000000000000000e+01, 4.901025999999999840e+03, 4.264614999999999782e+03, 4.145127999999999702e+03, 4.178974000000000160e+03, 5.242051000000000386e+03, 0.000000000000000000e+00, 1.000000000000000000e+00, 1.000000000000000000e+02
2.600000000000000000e+01, 4.898462000000000444e+03, 4.266667000000000371e+03, 4.147179000000000087e+03, 4.185640999999999622e+03, 5.240000000000000000e+03, 0.000000000000000000e+00, 1.000000000000000000e+00, 1.000000000000000000e+02
2.700000000000000000e+01, 4.902564000000000306e+03, 4.270769000000000233e+03, 4.149743999999999687e+03, 4.212307999999999993e+03, 5.243077000000000226e+03, 0.000000000000000000e+00, 1.000000000000000000e+00, 1.000000000000000000e+02
2.800000000000000000e+01, 4.900000000000000000e+03, 4.270769000000000233e+03, 4.158974000000000160e+03, 4.215896999999999935e+03, 5.235896999999999935e+03, 0.000000000000000000e+00, 1.000000000000000000e+00, 1.000000000000000000e+02
2.900000000000000000e+01, 4.891282000000000153e+03, 4.268717999999999847e+03, 4.163077000000000226e+03, 4.206667000000000371e+03, 5.217948999999999614e+03, 0.000000000000000000e+00, 1.000000000000000000e+00, 1.000000000000000000e+02
3.000000000000000000e+01, 4.887179000000000087e+03, 4.264614999999999782e+03, 4.169743999999999687e+03, 4.215385000000000218e+03, 5.211282000000000153e+03, 0.000000000000000000e+00, 1.000000000000000000e+00, 1.000000000000000000e+02
3.100000000000000000e+01, 4.880000000000000000e+03, 4.266667000000000371e+03, 4.177948999999999614e+03, 4.213845999999999549e+03, 5.213845999999999549e+03, 0.000000000000000000e+00, 1.000000000000000000e+00, 1.000000000000000000e+02
3.200000000000000000e+01, 4.865640999999999622e+03, 4.272820999999999913e+03, 4.168204999999999927e+03, 4.202051000000000386e+03, 5.206154000000000451e+03, 0.000000000000000000e+00, 1.000000000000000000e+00, 1.000000000000000000e+02
3.300000000000000000e+01, 4.857948999999999614e+03, 4.270769000000000233e+03, 4.149230999999999767e+03, 4.199487000000000080e+03, 5.194359000000000378e+03, 0.000000000000000000e+00, 1.000000000000000000e+00, 1.000000000000000000e+02
3.400000000000000000e+01, 4.856922999999999774e+03, 4.260512999999999920e+03, 4.142051000000000386e+03, 4.198462000000000444e+03, 5.196922999999999774e+03, 0.000000000000000000e+00, 1.000000000000000000e+00, 1.000000000000000000e+02
3.500000000000000000e+01, 4.861025999999999840e+03, 4.256409999999999854e+03, 4.145127999999999702e+03, 4.199487000000000080e+03, 5.212307999999999993e+03, 0.000000000000000000e+00, 1.000000000000000000e+00, 1.000000000000000000e+02
3.600000000000000000e+01, 4.865127999999999702e+03, 4.260512999999999920e+03, 4.145640999999999622e+03, 4.205640999999999622e+03, 5.209230999999999767e+03, 0.000000000000000000e+00, 1.000000000000000000e+00, 1.000000000000000000e+02
3.700000000000000000e+01, 4.865640999999999622e+03, 4.264614999999999782e+03, 4.145640999999999622e+03, 4.205127999999999702e+03, 5.195385000000000218e+03, 0.000000000000000000e+00, 1.000000000000000000e+00, 1.000000000000000000e+02
3.800000000000000000e+01, 4.863590000000000146e+03, 4.266667000000000371e+03, 4.149230999999999767e+03, 4.205127999999999702e+03, 5.204614999999999782e+03, 0.000000000000000000e+00, 1.000000000000000000e+00, 1.000000000000000000e+02
3.900000000000000000e+01, 4.858462000000000444e+03, 4.262564000000000306e+03, 4.148204999999999927e+03, 4.218974000000000160e+03, 5.203590000000000146e+03, 0.000000000000000000e+00, 1.000000000000000000e+00, 1.000000000000000000e+02
4.000000000000000000e+01, 4.861025999999999840e+03, 4.264614999999999782e+03, 4.153332999999999629e+03, 4.217435999999999694e+03, 5.186667000000000371e+03, 0.000000000000000000e+00, 1.000000000000000000e+00, 1.000000000000000000e+02
4.100000000000000000e+01, 4.861025999999999840e+03, 4.260512999999999920e+03, 4.153845999999999549e+03, 4.204614999999999782e+03, 5.179487000000000080e+03, 0.000000000000000000e+00, 1.000000000000000000e+00, 1.000000000000000000e+02
4.200000000000000000e+01, 4.846667000000000371e+03, 4.244103000000000065e+03, 4.140512999999999920e+03, 4.211795000000000073e+03, 5.170769000000000233e+03, 0.000000000000000000e+00, 1.000000000000000000e+00, 1.000000000000000000e+02
4.300000000000000000e+01, 4.838462000000000444e+03, 4.240000000000000000e+03, 4.141025999999999840e+03, 4.218974000000000160e+03, 5.163077000000000226e+03, 0.000000000000000000e+00, 1.000000000000000000e+00, 1.000000000000000000e+02
4.400000000000000000e+01, 4.834872000000000298e+03, 4.250256000000000313e+03, 4.145127999999999702e+03, 4.211282000000000153e+03, 5.154359000000000378e+03, 0.000000000000000000e+00, 1.000000000000000000e+00, 1.000000000000000000e+02
4.500000000000000000e+01, 4.828204999999999927e+03, 4.252307999999999993e+03, 4.139487000000000080e+03, 4.205640999999999622e+03, 5.140000000000000000e+03, 0.000000000000000000e+00, 1.000000000000000000e+00, 1.000000000000000000e+02
4.600000000000000000e+01, 4.821025999999999840e+03, 4.248204999999999927e+03, 4.138974000000000160e+03, 4.198462000000000444e+03, 5.131795000000000073e+03, 0.000000000000000000e+00, 1.000000000000000000e+00, 1.000000000000000000e+02
4.700000000000000000e+01, 4.812307999999999993e+03, 4.254359000000000378e+03, 4.136922999999999774e+03, 4.184614999999999782e+03, 5.121537999999999556e+03, 0.000000000000000000e+00, 1.000000000000000000e+00, 1.000000000000000000e+02
4.800000000000000000e+01, 4.806667000000000371e+03, 4.254359000000000378e+03, 4.135385000000000218e+03, 4.195896999999999935e+03, 5.113845999999999549e+03, 0.000000000000000000e+00, 1.000000000000000000e+00, 1.000000000000000000e+02
4.900000000000000000e+01, 4.805640999999999622e+03, 4.248204999999999927e+03, 4.140512999999999920e+03, 4.219487000000000080e+03, 5.119487000000000080e+03, 0.000000000000000000e+00, 1.000000000000000000e+00, 1.000000000000000000e+02
5.000000000000000000e+01, 4.812307999999999993e+03, 4.258462000000000444e+03, 4.155385000000000218e+03, 4.215385000000000218e+03, 5.140000000000000000e+03, 0.000000000000000000e+00, 1.000000000000000000e+00, 1.000000000000000000e+02
5.100000000000000000e+01, 4.819487000000000080e+03, 4.266667000000000371e+03, 4.163590000000000146e+03, 4.200512999999999920e+03, 5.147692000000000007e+03, 0.000000000000000000e+00, 1.000000000000000000e+00, 1.000000000000000000e+02
5.200000000000000000e+01, 4.811282000000000153e+03, 4.252307999999999993e+03, 4.150256000000000313e+03, 4.206667000000000371e+03, 5.123077000000000226e+03, 0.000000000000000000e+00, 1.000000000000000000e+00, 1.000000000000000000e+02
5.300000000000000000e+01, 4.811795000000000073e+03, 4.252307999999999993e+03, 4.148204999999999927e+03, 4.216409999999999854e+03, 5.106667000000000371e+03, 0.000000000000000000e+00, 1.000000000000000000e+00, 1.000000000000000000e+02
5.400000000000000000e+01, 4.815896999999999935e+03, 4.266667000000000371e+03, 4.158462000000000444e+03, 4.210769000000000233e+03, 5.098462000000000444e+03, 0.000000000000000000e+00, 1.000000000000000000e+00, 1.000000000000000000e+02
5.500000000000000000e+01, 4.800512999999999920e+03, 4.252307999999999993e+03, 4.151795000000000073e+03, 4.205640999999999622e+03, 5.088204999999999927e+03, 0.000000000000000000e+00, 1.000000000000000000e+00, 1.000000000000000000e+02
5.600000000000000000e+01, 4.788204999999999927e+03, 4.240000000000000000e+03, 4.135896999999999935e+03, 4.195385000000000218e+03, 5.090769000000000233e+03, 0.000000000000000000e+00, 1.000000000000000000e+00, 1.000000000000000000e+02
5.700000000000000000e+01, 4.780000000000000000e+03, 4.260512999999999920e+03, 4.131795000000000073e+03, 4.181025999999999840e+03, 5.081537999999999556e+03, 0.000000000000000000e+00, 1.000000000000000000e+00, 1.000000000000000000e+02
5.800000000000000000e+01, 4.764614999999999782e+03, 4.270769000000000233e+03, 4.131282000000000153e+03, 4.185127999999999702e+03, 5.063590000000000146e+03, 0.000000000000000000e+00, 1.000000000000000000e+00, 1.000000000000000000e+02
5.900000000000000000e+01, 4.763077000000000226e+03, 4.260512999999999920e+03, 4.124614999999999782e+03, 4.195896999999999935e+03, 5.055385000000000218e+03, 0.000000000000000000e+00, 1.000000000000000000e+00, 1.000000000000000000e+02
6.000000000000000000e+01, 4.782051000000000386e+03, 4.268717999999999847e+03, 4.128204999999999927e+03, 4.193845999999999549e+03, 5.062564000000000306e+03, 0.000000000000000000e+00, 1.000000000000000000e+00, 1.000000000000000000e+02
6.100000000000000000e+01, 4.790256000000000313e+03, 4.281025999999999840e+03, 4.143077000000000226e+03, 4.194359000000000378e+03, 5.069230999999999767e+03, 0.000000000000000000e+00, 1.000000000000000000e+00, 1.000000000000000000e+02
6.200000000000000000e+01, 4.765127999999999702e+03, 4.270769000000000233e+03, 4.138462000000000444e+03, 4.194872000000000298e+03, 5.047179000000000087e+03, 0.000000000000000000e+00, 1.000000000000000000e+00, 1.000000000000000000e+02
6.300000000000000000e+01, 4.740512999999999920e+03, 4.270769000000000233e+03, 4.129230999999999767e+03, 4.197948999999999614e+03, 5.028204999999999927e+03, 0.000000000000000000e+00, 1.000000000000000000e+00, 1.000000000000000000e+02
6.400000000000000000e+01, 4.737435999999999694e+03, 4.289230999999999767e+03, 4.141025999999999840e+03, 4.215896999999999935e+03, 5.030769000000000233e+03, 0.000000000000000000e+00, 1.000000000000000000e+00, 1.000000000000000000e+02
6.500000000000000000e+01, 4.735385000000000218e+03, 4.297435999999999694e+03, 4.152307999999999993e+03, 4.212820999999999913e+03, 5.024614999999999782e+03, 0.000000000000000000e+00, 1.000000000000000000e+00, 1.000000000000000000e+02
6.600000000000000000e+01, 4.725127999999999702e+03, 4.289230999999999767e+03, 4.146154000000000451e+03, 4.193845999999999549e+03, 5.014359000000000378e+03, 0.000000000000000000e+00, 1.000000000000000000e+00, 1.000000000000000000e+02
6.700000000000000000e+01, 4.712307999999999993e+03, 4.281025999999999840e+03, 4.134359000000000378e+03, 4.203077000000000226e+03, 5.010769000000000233e+03, 0.000000000000000000e+00, 1.000000000000000000e+00, 1.000000000000000000e+02
6.800000000000000000e+01, 4.707692000000000007e+03, 4.276922999999999774e+03, 4.134872000000000298e+03, 4.215896999999999935e+03, 5.005127999999999702e+03, 0.000000000000000000e+00, 1.000000000000000000e+00, 1.000000000000000000e+02
6.900000000000000000e+01, 4.705127999999999702e+03, 4.276922999999999774e+03, 4.137435999999999694e+03, 4.196922999999999774e+03, 4.995896999999999935e+03, 0.000000000000000000e+00, 1.000000000000000000e+00, 1.000000000000000000e+02
7.000000000000000000e+01, 4.695896999999999935e+03, 4.287179000000000087e+03, 4.135385000000000218e+03, 4.189743999999999687e+03, 4.988717999999999847e+03, 0.000000000000000000e+00, 1.000000000000000000e+00, 1.000000000000000000e+02
7.100000000000000000e+01, 4.697435999999999694e+03, 4.295385000000000218e+03, 4.141537999999999556e+03, 4.210769000000000233e+03, 4.988204999999999927e+03, 0.000000000000000000e+00, 1.000000000000000000e+00, 1.000000000000000000e+02
7.200000000000000000e+01, 4.701537999999999556e+03, 4.293332999999999629e+03, 4.141025999999999840e+03, 4.205127999999999702e+03, 4.987692000000000007e+03, 0.000000000000000000e+00, 1.000000000000000000e+00, 1.000000000000000000e+02
7.300000000000000000e+01, 4.691795000000000073e+03, 4.289230999999999767e+03, 4.129230999999999767e+03, 4.186154000000000451e+03, 4.985127999999999702e+03, 0.000000000000000000e+00, 1.000000000000000000e+00, 1.000000000000000000e+02
7.400000000000000000e+01, 4.680000000000000000e+03, 4.281025999999999840e+03, 4.122564000000000306e+03, 4.196409999999999854e+03, 4.976409999999999854e+03, 0.000000000000000000e+00, 1.000000000000000000e+00, 1.000000000000000000e+02
7.500000000000000000e+01, 4.681025999999999840e+03, 4.274872000000000298e+03, 4.120512999999999920e+03, 4.203077000000000226e+03, 4.964103000000000065e+03, 0.000000000000000000e+00, 1.000000000000000000e+00, 1.000000000000000000e+02
7.600000000000000000e+01, 4.683590000000000146e+03, 4.285127999999999702e+03, 4.117948999999999614e+03, 4.185640999999999622e+03, 4.962564000000000306e+03, 0.000000000000000000e+00, 1.000000000000000000e+00, 1.000000000000000000e+02
7.700000000000000000e+01, 4.674359000000000378e+03, 4.293332999999999629e+03, 4.115896999999999935e+03, 4.180000000000000000e+03, 4.957435999999999694e+03, 0.000000000000000000e+00, 1.000000000000000000e+00, 1.000000000000000000e+02
7.800000000000000000e+01, 4.674872000000000298e+03, 4.287179000000000087e+03, 4.120512999999999920e+03, 4.197948999999999614e+03, 4.952307999999999993e+03, 0.000000000000000000e+00, 1.000000000000000000e+00, 1.000000000000000000e+02
7.900000000000000000e+01, 4.685640999999999622e+03, 4.291282000000000153e+03, 4.134359000000000378e+03, 4.217948999999999614e+03, 4.960000000000000000e+03, 0.000000000000000000e+00, 1.000000000000000000e+00, 1.000000000000000000e+02
8.000000000000000000e+01, 4.673845999999999549e+03, 4.297435999999999694e+03, 4.138462000000000444e+03, 4.211282000000000153e+03, 4.947692000000000007e+03, 0.000000000000000000e+00, 1.000000000000000000e+00, 1.000000000000000000e+02
8.100000000000000000e+01, 4.653845999999999549e+03, 4.285127999999999702e+03, 4.132820999999999913e+03, 4.195896999999999935e+03, 4.924614999999999782e+03, 0.000000000000000000e+00, 1.000000000000000000e+00, 1.000000000000000000e+02
8.200000000000000000e+01, 4.649743999999999687e+03, 4.278974000000000160e+03, 4.135385000000000218e+03, 4.206154000000000451e+03, 4.923077000000000226e+03, 0.000000000000000000e+00, 1.000000000000000000e+00, 1.000000000000000000e+02
8.300000000000000000e+01, 4.651795000000000073e+03, 4.293332999999999629e+03, 4.152307999999999993e+03, 4.227692000000000007e+03, 4.931795000000000073e+03, 0.000000000000000000e+00, 1.000000000000000000e+00, 1.000000000000000000e+02
8.400000000000000000e+01, 4.652820999999999913e+03, 4.297435999999999694e+03, 4.157435999999999694e+03, 4.222564000000000306e+03, 4.922564000000000306e+03, 0.000000000000000000e+00, 1.000000000000000000e+00, 1.000000000000000000e+02
8.500000000000000000e+01, 4.644103000000000065e+03, 4.293332999999999629e+03, 4.138974000000000160e+03, 4.198462000000000444e+03, 4.898974000000000160e+03, 0.000000000000000000e+00, 1.000000000000000000e+00, 1.000000000000000000e+02
8.600000000000000000e+01, 4.630769000000000233e+03, 4.295385000000000218e+03, 4.128717999999999847e+03, 4.186154000000000451e+03, 4.888204999999999927e+03, 0.000000000000000000e+00, 1.000000000000000000e+00, 1.000000000000000000e+02
8.700000000000000000e+01, 4.623077000000000226e+03, 4.301537999999999556e+03, 4.128204999999999927e+03, 4.183590000000000146e+03, 4.872820999999999913e+03, 0.000000000000000000e+00, 1.000000000000000000e+00, 1.000000000000000000e+02
8.800000000000000000e+01, 4.615896999999999935e+03, 4.295385000000000218e+03, 4.117948999999999614e+03, 4.179487000000000080e+03, 4.850256000000000313e+03, 0.000000000000000000e+00, 1.000000000000000000e+00, 1.000000000000000000e+02
8.900000000000000000e+01, 4.610769000000000233e+03, 4.291282000000000153e+03, 4.112820999999999913e+03, 4.182051000000000386e+03, 4.855385000000000218e+03, 0.000000000000000000e+00, 1.000000000000000000e+00, 1.000000000000000000e+02
9.000000000000000000e+01, 4.612820999999999913e+03, 4.299487000000000080e+03, 4.114872000000000298e+03, 4.190769000000000233e+03, 4.866667000000000371e+03, 0.000000000000000000e+00, 1.000000000000000000e+00, 1.000000000000000000e+02
9.100000000000000000e+01, 4.609230999999999767e+03, 4.301537999999999556e+03, 4.115385000000000218e+03, 4.186667000000000371e+03, 4.848717999999999847e+03, 0.000000000000000000e+00, 1.000000000000000000e+00, 1.000000000000000000e+02
9.200000000000000000e+01, 4.589230999999999767e+03, 4.295385000000000218e+03, 4.115385000000000218e+03, 4.175385000000000218e+03, 4.821025999999999840e+03, 0.000000000000000000e+00, 1.000000000000000000e+00, 1.000000000000000000e+02
9.300000000000000000e+01, 4.580000000000000000e+03, 4.293332999999999629e+03, 4.114359000000000378e+03, 4.179487000000000080e+03, 4.816409999999999854e+03, 0.000000000000000000e+00, 1.000000000000000000e+00, 1.000000000000000000e+02
9.400000000000000000e+01, 4.590256000000000313e+03, 4.285127999999999702e+03, 4.121025999999999840e+03, 4.190769000000000233e+03, 4.826154000000000451e+03, 0.000000000000000000e+00, 1.000000000000000000e+00, 1.000000000000000000e+02
9.500000000000000000e+01, 4.594359000000000378e+03, 4.278974000000000160e+03, 4.128204999999999927e+03, 4.189743999999999687e+03, 4.821537999999999556e+03, 0.000000000000000000e+00, 1.000000000000000000e+00, 1.000000000000000000e+02
9.600000000000000000e+01, 4.594872000000000298e+03, 4.281025999999999840e+03, 4.131795000000000073e+03, 4.191282000000000153e+03, 4.820000000000000000e+03, 0.000000000000000000e+00, 1.000000000000000000e+00, 1.000000000000000000e+02
9.700000000000000000e+01, 4.598462000000000444e+03, 4.270769000000000233e+03, 4.133332999999999629e+03, 4.197948999999999614e+03, 4.825127999999999702e+03, 0.000000000000000000e+00, 1.000000000000000000e+00, 1.000000000000000000e+02
9.800000000000000000e+01, 4.597435999999999694e+03, 4.258462000000000444e+03, 4.139487000000000080e+03, 4.193845999999999549e+03, 4.814359000000000378e+03, 0.000000000000000000e+00, 1.000000000000000000e+00, 1.000000000000000000e+02
9.900000000000000000e+01, 4.596922999999999774e+03, 4.262564000000000306e+03, 4.157948999999999614e+03, 4.190256000000000313e+03, 4.807179000000000087e+03, 0.000000000000000000e+00, 1.000000000000000000e+00, 1.000000000000000000e+02
1.000000000000000000e+02, 4.584103000000000065e+03, 4.266667000000000371e+03, 4.155896999999999935e+03, 4.193332999999999629e+03, 4.801537999999999556e+03, 0.000000000000000000e+00, 1.000000000000000000e+00, 1.000000000000000000e+02
1.010000000000000000e+02, 4.573845999999999549e+03, 4.258462000000000444e+03, 4.139487000000000080e+03, 4.200000000000000000e+03, 4.791282000000000153e+03, 0.000000000000000000e+00, 1.000000000000000000e+00, 1.000000000000000000e+02
1.020000000000000000e+02, 4.590256000000000313e+03, 4.254359000000000378e+03, 4.144614999999999782e+03, 4.208204999999999927e+03, 4.795385000000000218e+03, 0.000000000000000000e+00, 1.000000000000000000e+00, 1.000000000000000000e+02
1.030000000000000000e+02, 4.597948999999999614e+03, 4.262564000000000306e+03, 4.156922999999999774e+03, 4.212307999999999993e+03, 4.802051000000000386e+03, 0.000000000000000000e+00, 1.000000000000000000e+00, 1.000000000000000000e+02
1.040000000000000000e+02, 4.589230999999999767e+03, 4.260512999999999920e+03, 4.163077000000000226e+03, 4.208204999999999927e+03, 4.800000000000000000e+03, 0.000000000000000000e+00, 1.000000000000000000e+00, 1.000000000000000000e+02
1.050000000000000000e+02, 4.591795000000000073e+03, 4.256409999999999854e+03, 4.163077000000000226e+03, 4.195385000000000218e+03, 4.795385000000000218e+03, 0.000000000000000000e+00, 1.000000000000000000e+00, 1.000000000000000000e+02
1.060000000000000000e+02, 4.597948999999999614e+03, 4.254359000000000378e+03, 4.158462000000000444e+03, 4.196409999999999854e+03, 4.799487000000000080e+03, 0.000000000000000000e+00, 1.000000000000000000e+00, 1.000000000000000000e+02
1.070000000000000000e+02, 4.595896999999999935e+03, 4.254359000000000378e+03, 4.154359000000000378e+03, 4.211282000000000153e+03, 4.804103000000000065e+03, 0.000000000000000000e+00, 1.000000000000000000e+00, 1.000000000000000000e+02
1.080000000000000000e+02, 4.589743999999999687e+03, 4.246154000000000451e+03, 4.149230999999999767e+03, 4.214359000000000378e+03, 4.785127999999999702e+03, 0.000000000000000000e+00, 1.000000000000000000e+00, 1.000000000000000000e+02
1.090000000000000000e+02, 4.588717999999999847e+03, 4.237948999999999614e+03, 4.154359000000000378e+03, 4.206667000000000371e+03, 4.771795000000000073e+03, 0.000000000000000000e+00, 1.000000000000000000e+00, 1.000000000000000000e+02
1.100000000000000000e+02, 4.586667000000000371e+03, 4.250256000000000313e+03, 4.161537999999999556e+03, 4.202051000000000386e+03, 4.783590000000000146e+03, 0.000000000000000000e+00, 1.000000000000000000e+00, 1.000000000000000000e+02
1.110000000000000000e+02, 4.581025999999999840e+03, 4.264614999999999782e+03, 4.159487000000000080e+03, 4.203590000000000146e+03, 4.788717999999999847e+03, 0.000000000000000000e+00, 1.000000000000000000e+00, 1.000000000000000000e+02
1.120000000000000000e+02, 4.581025999999999840e+03, 4.254359000000000378e+03, 4.152820999999999913e+03, 4.207692000000000007e+03, 4.777948999999999614e+03, 0.000000000000000000e+00, 1.000000000000000000e+00, 1.000000000000000000e+02
1.130000000000000000e+02, 4.578974000000000160e+03, 4.237948999999999614e+03, 4.144614999999999782e+03, 4.209743999999999687e+03, 4.766667000000000371e+03, 0.000000000000000000e+00, 1.000000000000000000e+00, 1.000000000000000000e+02
1.140000000000000000e+02, 4.571795000000000073e+03, 4.235896999999999935e+03, 4.146154000000000451e+03, 4.206667000000000371e+03, 4.767179000000000087e+03, 0.000000000000000000e+00, 1.000000000000000000e+00, 1.000000000000000000e+02
1.150000000000000000e+02, 4.560000000000000000e+03, 4.235896999999999935e+03, 4.149743999999999687e+03, 4.197948999999999614e+03, 4.760000000000000000e+03, 0.000000000000000000e+00, 1.000000000000000000e+00, 1.000000000000000000e+02
1.160000000000000000e+02, 4.552820999999999913e+03, 4.229743999999999687e+03, 4.143077000000000226e+03, 4.193845999999999549e+03, 4.746667000000000371e+03, 0.000000000000000000e+00, 1.000000000000000000e+00, 1.000000000000000000e+02
1.170000000000000000e+02, 4.556922999999999774e+03, 4.231795000000000073e+03, 4.140512999999999920e+03, 4.199487000000000080e+03, 4.748204999999999927e+03, 0.000000000000000000e+00, 1.000000000000000000e+00, 1.000000000000000000e+02
1.180000000000000000e+02, 4.560512999999999920e+03, 4.233845999999999549e+03, 4.145127999999999702e+03, 4.198462000000000444e+03, 4.746154000000000451e+03, 0.000000000000000000e+00, 1.000000000000000000e+00, 1.000000000000000000e+02
1.190000000000000000e+02, 4.557948999999999614e+03, 4.237948999999999614e+03, 4.151795000000000073e+03, 4.191282000000000153e+03, 4.744614999999999782e+03, 0.000000000000000000e+00, 1.000000000000000000e+00, 1.000000000000000000e+02
1.200000000000000000e+02, 4.550256000000000313e+03, 4.240000000000000000e+03, 4.146154000000000451e+03, 4.192820999999999913e+03, 4.747692000000000007e+03, 0.000000000000000000e+00, 1.000000000000000000e+00, 1.000000000000000000e+02
1.210000000000000000e+02, 4.547692000000000007e+03, 4.233845999999999549e+03, 4.134872000000000298e+03, 4.206667000000000371e+03, 4.742051000000000386e+03, 0.000000000000000000e+00, 1.000000000000000000e+00, 1.000000000000000000e+02
1.220000000000000000e+02, 4.543590000000000146e+03, 4.235896999999999935e+03, 4.131795000000000073e+03, 4.210769000000000233e+03, 4.728204999999999927e+03, 0.000000000000000000e+00, 1.000000000000000000e+00, 1.000000000000000000e+02
1.230000000000000000e+02, 4.524614999999999782e+03, 4.233845999999999549e+03, 4.124614999999999782e+03, 4.192307999999999993e+03, 4.707179000000000087e+03, 0.000000000000000000e+00, 1.000000000000000000e+00, 1.000000000000000000e+02
1.240000000000000000e+02, 4.518462000000000444e+03, 4.217435999999999694e+03, 4.124614999999999782e+03, 4.182051000000000386e+03, 4.705640999999999622e+03, 0.000000000000000000e+00, 1.000000000000000000e+00, 1.000000000000000000e+02
1.250000000000000000e+02, 4.527692000000000007e+03, 4.215385000000000218e+03, 4.138462000000000444e+03, 4.190256000000000313e+03, 4.719487000000000080e+03, 0.000000000000000000e+00, 1.000000000000000000e+00, 1.000000000000000000e+02
1.260000000000000000e+02, 4.521537999999999556e+03, 4.233845999999999549e+03, 4.143077000000000226e+03, 4.192820999999999913e+03, 4.713845999999999549e+03, 0.000000000000000000e+00, 1.000000000000000000e+00, 1.000000000000000000e+02
1.270000000000000000e+02, 4.515896999999999935e+03, 4.233845999999999549e+03, 4.137948999999999614e+03, 4.193845999999999549e+03, 4.702051000000000386e+03, 0.000000000000000000e+00, 1.000000000000000000e+00, 1.000000000000000000e+02
0.000000000000000000e+00, 4.516409999999999854e+03, 4.225640999999999622e+03, 4.131795000000000073e+03, 4.200512999999999920e+03, 4.690769000000000233e+03, 0.000000000000000000e+00, 1.000000000000000000e+00, 1.000000000000000000e+02
1.000000000000000000e+00, 4.510256000000000313e+03, 4.231795000000000073e+03, 4.134872000000000298e+03, 4.203590000000000146e+03, 4.683077000000000226e+03, 0.000000000000000000e+00, 1.000000000000000000e+00, 1.000000000000000000e+02
2.000000000000000000e+00, 4.512307999999999993e+03, 4.233845999999999549e+03, 4.146667000000000371e+03, 4.211795000000000073e+03, 4.687692000000000007e+03, 0.000000000000000000e+00, 1.000000000000000000e+00, 1.000000000000000000e+02
3.000000000000000000e+00, 4.516922999999999774e+03, 4.229743999999999687e+03, 4.149230999999999767e+03, 4.217435999999999694e+03, 4.688204999999999927e+03, 0.000000000000000000e+00, 1.000000000000000000e+00, 1.000000000000000000e+02
4.000000000000000000e+00, 4.507692000000000007e+03, 4.240000000000000000e+03, 4.144614999999999782e+03, 4.207179000000000087e+03, 4.679487000000000080e+03, 1.000000000000000000e+00, 0.000000000000000000e+00, 1.000000000000000000e+02
5.000000000000000000e+00, 4.497948999999999614e+03, 4.252307999999999993e+03, 4.140000000000000000e+03, 4.202051000000000386e+03, 4.668204999999999927e+03, 1.000000000000000000e+00, 0.000000000000000000e+00, 1.000000000000000000e+02
6.000000000000000000e+00, 4.496922999999999774e+03, 4.246154000000000451e+03, 4.138974000000000160e+03, 4.216409999999999854e+03, 4.666154000000000451e+03, 1.000000000000000000e+00, 0.000000000000000000e+00, 1.000000000000000000e+02
7.000000000000000000e+00, 4.500512999999999920e+03, 4.233845999999999549e+03, 4.141537999999999556e+03, 4.221537999999999556e+03, 4.669743999999999687e+03, 1.000000000000000000e+00, 0.000000000000000000e+00, 1.000000000000000000e+02
8.000000000000000000e+00, 4.501537999999999556e+03, 4.235896999999999935e+03, 4.144103000000000065e+03, 4.207179000000000087e+03, 4.665127999999999702e+03, 1.000000000000000000e+00, 0.000000000000000000e+00, 1.000000000000000000e+02
