COUNTER, AF3, T7, Pz, T8, AF4, MARKERS['YES','NO'], TICK, ContactQuality
1.030000000000000000e+02, 4.200000000000000000e+03, 4.203077000000000226e+03, 4.144614999999999782e+03, 4.190256000000000313e+03, 4.200000000000000000e+03, 1.000000000000000000e+00, 1.000000000000000000e+00, 1.000000000000000000e+02
1.040000000000000000e+02, 4.192307999999999993e+03, 4.205127999999999702e+03, 4.135385000000000218e+03, 4.181537999999999556e+03, 4.190256000000000313e+03, 1.000000000000000000e+00, 1.000000000000000000e+00, 1.000000000000000000e+02
1.050000000000000000e+02, 4.186154000000000451e+03, 4.198974000000000160e+03, 4.126667000000000371e+03, 4.166154000000000451e+03, 4.184103000000000065e+03, 1.000000000000000000e+00, 1.000000000000000000e+00, 1.000000000000000000e+02
1.060000000000000000e+02, 4.191795000000000073e+03, 4.198974000000000160e+03, 4.129230999999999767e+03, 4.172307999999999993e+03, 4.188204999999999927e+03, 1.000000000000000000e+00, 1.000000000000000000e+00, 1.000000000000000000e+02
1.070000000000000000e+02, 4.202051000000000386e+03, 4.201025999999999840e+03, 4.128204999999999927e+03, 4.184614999999999782e+03, 4.193332999999999629e+03, 1.000000000000000000e+00, 1.000000000000000000e+00, 1.000000000000000000e+02
1.080000000000000000e+02, 4.203077000000000226e+03, 4.203077000000000226e+03, 4.123077000000000226e+03, 4.173845999999999549e+03, 4.202051000000000386e+03, 1.000000000000000000e+00, 1.000000000000000000e+00, 1.000000000000000000e+02
1.090000000000000000e+02, 4.200512999999999920e+03, 4.207179000000000087e+03, 4.123077000000000226e+03, 4.173332999999999629e+03, 4.208204999999999927e+03, 1.000000000000000000e+00, 1.000000000000000000e+00, 1.000000000000000000e+02
1.100000000000000000e+02, 4.203590000000000146e+03, 4.201025999999999840e+03, 4.120000000000000000e+03, 4.186667000000000371e+03, 4.210256000000000313e+03, 1.000000000000000000e+00, 1.000000000000000000e+00, 1.000000000000000000e+02
1.110000000000000000e+02, 4.201537999999999556e+03, 4.194872000000000298e+03, 4.113332999999999629e+03, 4.175385000000000218e+03, 4.210769000000000233e+03, 1.000000000000000000e+00, 1.000000000000000000e+00, 1.000000000000000000e+02
1.120000000000000000e+02, 4.197435999999999694e+03, 4.198974000000000160e+03, 4.124103000000000065e+03, 4.170769000000000233e+03, 4.206667000000000371e+03, 1.000000000000000000e+00, 1.000000000000000000e+00, 1.000000000000000000e+02
1.130000000000000000e+02, 4.192307999999999993e+03, 4.201025999999999840e+03, 4.134872000000000298e+03, 4.186667000000000371e+03, 4.192820999999999913e+03, 1.000000000000000000e+00, 1.000000000000000000e+00, 1.000000000000000000e+02
1.140000000000000000e+02, 4.174359000000000378e+03, 4.186667000000000371e+03, 4.114872000000000298e+03, 4.173845999999999549e+03, 4.171282000000000153e+03, 1.000000000000000000e+00, 1.000000000000000000e+00, 1.000000000000000000e+02
1.150000000000000000e+02, 4.166154000000000451e+03, 4.180512999999999920e+03, 4.101537999999999556e+03, 4.163590000000000146e+03, 4.173845999999999549e+03, 1.000000000000000000e+00, 1.000000000000000000e+00, 1.000000000000000000e+02
1.160000000000000000e+02, 4.180512999999999920e+03, 4.188717999999999847e+03, 4.116922999999999774e+03, 4.189230999999999767e+03, 4.196409999999999854e+03, 1.000000000000000000e+00, 1.000000000000000000e+00, 1.000000000000000000e+02
1.170000000000000000e+02, 4.188204999999999927e+03, 4.190769000000000233e+03, 4.123590000000000146e+03, 4.193845999999999549e+03, 4.201025999999999840e+03, 1.000000000000000000e+00, 1.000000000000000000e+00, 1.000000000000000000e+02
1.180000000000000000e+02, 4.189230999999999767e+03, 4.184614999999999782e+03, 4.117435999999999694e+03, 4.173332999999999629e+03, 4.194872000000000298e+03, 1.000000000000000000e+00, 1.000000000000000000e+00, 1.000000000000000000e+02
1.190000000000000000e+02, 4.194359000000000378e+03, 4.186667000000000371e+03, 4.120512999999999920e+03, 4.176409999999999854e+03, 4.201025999999999840e+03, 1.000000000000000000e+00, 1.000000000000000000e+00, 1.000000000000000000e+02
1.200000000000000000e+02, 4.191795000000000073e+03, 4.182564000000000306e+03, 4.125640999999999622e+03, 4.184614999999999782e+03, 4.207179000000000087e+03, 1.000000000000000000e+00, 1.000000000000000000e+00, 1.000000000000000000e+02
1.210000000000000000e+02, 4.177948999999999614e+03, 4.174359000000000378e+03, 4.117435999999999694e+03, 4.171795000000000073e+03, 4.193332999999999629e+03, 1.000000000000000000e+00, 1.000000000000000000e+00, 1.000000000000000000e+02
1.220000000000000000e+02, 4.171795000000000073e+03, 4.176409999999999854e+03, 4.110769000000000233e+03, 4.166154000000000451e+03, 4.178974000000000160e+03, 1.000000000000000000e+00, 1.000000000000000000e+00, 1.000000000000000000e+02
1.230000000000000000e+02, 4.179487000000000080e+03, 4.178462000000000444e+03, 4.111282000000000153e+03, 4.172307999999999993e+03, 4.185640999999999622e+03, 1.000000000000000000e+00, 1.000000000000000000e+00, 1.000000000000000000e+02
1.240000000000000000e+02, 4.182564000000000306e+03, 4.170256000000000313e+03, 4.109743999999999687e+03, 4.164103000000000065e+03, 4.190769000000000233e+03, 1.000000000000000000e+00, 1.000000000000000000e+00, 1.000000000000000000e+02
1.250000000000000000e+02, 4.182051000000000386e+03, 4.174359000000000378e+03, 4.114872000000000298e+03, 4.161025999999999840e+03, 4.193332999999999629e+03, 1.000000000000000000e+00, 1.000000000000000000e+00, 1.000000000000000000e+02
1.260000000000000000e+02, 4.183590000000000146e+03, 4.184614999999999782e+03, 4.120512999999999920e+03, 4.175385000000000218e+03, 4.195896999999999935e+03, 1.000000000000000000e+00, 1.000000000000000000e+00, 1.000000000000000000e+02
1.270000000000000000e+02, 4.177948999999999614e+03, 4.178462000000000444e+03, 4.111282000000000153e+03, 4.178974000000000160e+03, 4.188717999999999847e+03, 1.000000000000000000e+00, 1.000000000000000000e+00, 1.000000000000000000e+02
0.000000000000000000e+00, 4.172820999999999913e+03, 4.172307999999999993e+03, 4.103590000000000146e+03, 4.168204999999999927e+03, 4.181537999999999556e+03, 1.000000000000000000e+00, 1.000000000000000000e+00, 1.000000000000000000e+02
1.000000000000000000e+00, 4.177948999999999614e+03, 4.182564000000000306e+03, 4.116409999999999854e+03, 4.166667000000000371e+03, 4.183077000000000226e+03, 1.000000000000000000e+00, 1.000000000000000000e+00, 1.000000000000000000e+02
2.000000000000000000e+00, 4.190769000000000233e+03, 4.180512999999999920e+03, 4.124103000000000065e+03, 4.170769000000000233e+03, 4.192307999999999993e+03, 1.000000000000000000e+00, 1.000000000000000000e+00, 1.000000000000000000e+02
3.000000000000000000e+00, 4.201025999999999840e+03, 4.168204999999999927e+03, 4.112820999999999913e+03, 4.167692000000000007e+03, 4.195385000000000218e+03, 1.000000000000000000e+00, 1.000000000000000000e+00, 1.000000000000000000e+02
4.000000000000000000e+00, 4.208717999999999847e+03, 4.164103000000000065e+03, 4.107179000000000087e+03, 4.169743999999999687e+03, 4.195896999999999935e+03, 1.000000000000000000e+00, 1.000000000000000000e+00, 1.000000000000000000e+02
5.000000000000000000e+00, 4.215896999999999935e+03, 4.168204999999999927e+03, 4.109743999999999687e+03, 4.174359000000000378e+03, 4.206154000000000451e+03, 1.000000000000000000e+00, 1.000000000000000000e+00, 1.000000000000000000e+02
6.000000000000000000e+00, 4.211795000000000073e+03, 4.170256000000000313e+03, 4.109230999999999767e+03, 4.168717999999999847e+03, 4.203077000000000226e+03, 1.000000000000000000e+00, 1.000000000000000000e+00, 1.000000000000000000e+02
7.000000000000000000e+00, 4.197948999999999614e+03, 4.168204999999999927e+03, 4.113845999999999549e+03, 4.165640999999999622e+03, 4.193332999999999629e+03, 1.000000000000000000e+00, 1.000000000000000000e+00, 1.000000000000000000e+02
8.000000000000000000e+00, 4.193332999999999629e+03, 4.172307999999999993e+03, 4.123077000000000226e+03, 4.176922999999999774e+03, 4.191795000000000073e+03, 1.000000000000000000e+00, 1.000000000000000000e+00, 1.000000000000000000e+02
9.000000000000000000e+00, 4.201537999999999556e+03, 4.178462000000000444e+03, 4.126667000000000371e+03, 4.180000000000000000e+03, 4.191282000000000153e+03, 1.000000000000000000e+00, 1.000000000000000000e+00, 1.000000000000000000e+02
1.000000000000000000e+01, 4.212820999999999913e+03, 4.176409999999999854e+03, 4.131795000000000073e+03, 4.177948999999999614e+03, 4.200000000000000000e+03, 1.000000000000000000e+00, 1.000000000000000000e+00, 1.000000000000000000e+02
1.100000000000000000e+01, 4.216409999999999854e+03, 4.174359000000000378e+03, 4.132307999999999993e+03, 4.187692000000000007e+03, 4.208204999999999927e+03, 1.000000000000000000e+00, 1.000000000000000000e+00, 1.000000000000000000e+02
1.200000000000000000e+01, 4.211282000000000153e+03, 4.170256000000000313e+03, 4.113845999999999549e+03, 4.182051000000000386e+03, 4.195896999999999935e+03, 1.000000000000000000e+00, 1.000000000000000000e+00, 1.000000000000000000e+02
1.300000000000000000e+01, 4.208204999999999927e+03, 4.164103000000000065e+03, 4.106154000000000451e+03, 4.165640999999999622e+03, 4.189230999999999767e+03, 1.000000000000000000e+00, 1.000000000000000000e+00, 1.000000000000000000e+02
1.400000000000000000e+01, 4.216922999999999774e+03, 4.162051000000000386e+03, 4.116922999999999774e+03, 4.168717999999999847e+03, 4.199487000000000080e+03, 1.000000000000000000e+00, 1.000000000000000000e+00, 1.000000000000000000e+02
1.500000000000000000e+01, 4.221025999999999840e+03, 4.160000000000000000e+03, 4.113332999999999629e+03, 4.167692000000000007e+03, 4.196922999999999774e+03, 1.000000000000000000e+00, 1.000000000000000000e+00, 1.000000000000000000e+02
1.600000000000000000e+01, 4.214872000000000298e+03, 4.160000000000000000e+03, 4.108717999999999847e+03, 4.153845999999999549e+03, 4.190256000000000313e+03, 1.000000000000000000e+00, 1.000000000000000000e+00, 1.000000000000000000e+02
1.700000000000000000e+01, 4.216409999999999854e+03, 4.168204999999999927e+03, 4.118974000000000160e+03, 4.165127999999999702e+03, 4.203590000000000146e+03, 1.000000000000000000e+00, 1.000000000000000000e+00, 1.000000000000000000e+02
1.800000000000000000e+01, 4.223590000000000146e+03, 4.170256000000000313e+03, 4.121025999999999840e+03, 4.181025999999999840e+03, 4.209743999999999687e+03, 1.000000000000000000e+00, 1.000000000000000000e+00, 1.000000000000000000e+02
1.900000000000000000e+01, 4.217948999999999614e+03, 4.168204999999999927e+03, 4.118974000000000160e+03, 4.171795000000000073e+03, 4.194872000000000298e+03, 1.000000000000000000e+00, 1.000000000000000000e+00, 1.000000000000000000e+02
2.000000000000000000e+01, 4.207179000000000087e+03, 4.164103000000000065e+03, 4.126667000000000371e+03, 4.165640999999999622e+03, 4.189743999999999687e+03, 1.000000000000000000e+00, 1.000000000000000000e+00, 1.000000000000000000e+02
2.100000000000000000e+01, 4.204614999999999782e+03, 4.157948999999999614e+03, 4.128204999999999927e+03, 4.170769000000000233e+03, 4.193332999999999629e+03, 1.000000000000000000e+00, 1.000000000000000000e+00, 1.000000000000000000e+02
2.200000000000000000e+01, 4.202564000000000306e+03, 4.147692000000000007e+03, 4.118974000000000160e+03, 4.169230999999999767e+03, 4.187179000000000087e+03, 1.000000000000000000e+00, 1.000000000000000000e+00, 1.000000000000000000e+02
2.300000000000000000e+01, 4.206667000000000371e+03, 4.153845999999999549e+03, 4.122564000000000306e+03, 4.172307999999999993e+03, 4.191795000000000073e+03, 1.000000000000000000e+00, 1.000000000000000000e+00, 1.000000000000000000e+02
2.400000000000000000e+01, 4.224103000000000065e+03, 4.168204999999999927e+03, 4.134359000000000378e+03, 4.183077000000000226e+03, 4.210256000000000313e+03, 1.000000000000000000e+00, 1.000000000000000000e+00, 1.000000000000000000e+02
2.500000000000000000e+01, 4.229743999999999687e+03, 4.174359000000000378e+03, 4.136409999999999854e+03, 4.186667000000000371e+03, 4.216409999999999854e+03, 1.000000000000000000e+00, 1.000000000000000000e+00, 1.000000000000000000e+02
2.600000000000000000e+01, 4.222051000000000386e+03, 4.172307999999999993e+03, 4.127692000000000007e+03, 4.185640999999999622e+03, 4.208717999999999847e+03, 1.000000000000000000e+00, 1.000000000000000000e+00, 1.000000000000000000e+02
2.700000000000000000e+01, 4.228204999999999927e+03, 4.168204999999999927e+03, 4.120000000000000000e+03, 4.184614999999999782e+03, 4.210256000000000313e+03, 1.000000000000000000e+00, 1.000000000000000000e+00, 1.000000000000000000e+02
2.800000000000000000e+01, 4.244103000000000065e+03, 4.162051000000000386e+03, 4.111795000000000073e+03, 4.174872000000000298e+03, 4.220512999999999920e+03, 1.000000000000000000e+00, 1.000000000000000000e+00, 1.000000000000000000e+02
2.900000000000000000e+01, 4.252820999999999913e+03, 4.147692000000000007e+03, 4.101025999999999840e+03, 4.162051000000000386e+03, 4.221025999999999840e+03, 1.000000000000000000e+00, 1.000000000000000000e+00, 1.000000000000000000e+02
3.000000000000000000e+01, 4.270769000000000233e+03, 4.147692000000000007e+03, 4.109230999999999767e+03, 4.167179000000000087e+03, 4.226667000000000371e+03, 1.000000000000000000e+00, 1.000000000000000000e+00, 1.000000000000000000e+02
3.100000000000000000e+01, 4.281537999999999556e+03, 4.162051000000000386e+03, 4.126667000000000371e+03, 4.183077000000000226e+03, 4.234872000000000298e+03, 1.000000000000000000e+00, 1.000000000000000000e+00, 1.000000000000000000e+02
3.200000000000000000e+01, 4.264103000000000065e+03, 4.166154000000000451e+03, 4.129743999999999687e+03, 4.184103000000000065e+03, 4.229743999999999687e+03, 1.000000000000000000e+00, 1.000000000000000000e+00, 1.000000000000000000e+02
3.300000000000000000e+01, 4.253845999999999549e+03, 4.157948999999999614e+03, 4.126667000000000371e+03, 4.173845999999999549e+03, 4.226154000000000451e+03, 1.000000000000000000e+00, 1.000000000000000000e+00, 1.000000000000000000e+02
3.400000000000000000e+01, 4.259487000000000080e+03, 4.151795000000000073e+03, 4.123590000000000146e+03, 4.168204999999999927e+03, 4.227692000000000007e+03, 1.000000000000000000e+00, 1.000000000000000000e+00, 1.000000000000000000e+02
3.500000000000000000e+01, 4.259487000000000080e+03, 4.153845999999999549e+03, 4.123590000000000146e+03, 4.170769000000000233e+03, 4.222051000000000386e+03, 1.000000000000000000e+00, 1.000000000000000000e+00, 1.000000000000000000e+02
3.600000000000000000e+01, 4.246667000000000371e+03, 4.157948999999999614e+03, 4.130256000000000313e+03, 4.169743999999999687e+03, 4.210256000000000313e+03, 1.000000000000000000e+00, 1.000000000000000000e+00, 1.000000000000000000e+02
3.700000000000000000e+01, 4.241537999999999556e+03, 4.157948999999999614e+03, 4.142051000000000386e+03, 4.164103000000000065e+03, 4.208204999999999927e+03, 1.000000000000000000e+00, 1.000000000000000000e+00, 1.000000000000000000e+02
3.800000000000000000e+01, 4.257948999999999614e+03, 4.168204999999999927e+03, 4.162564000000000306e+03, 4.176922999999999774e+03, 4.224614999999999782e+03, 1.000000000000000000e+00, 1.000000000000000000e+00, 1.000000000000000000e+02
3.900000000000000000e+01, 4.270256000000000313e+03, 4.178462000000000444e+03, 4.171795000000000073e+03, 4.187179000000000087e+03, 4.232307999999999993e+03, 1.000000000000000000e+00, 1.000000000000000000e+00, 1.000000000000000000e+02
4.000000000000000000e+01, 4.263590000000000146e+03, 4.174359000000000378e+03, 4.154872000000000298e+03, 4.174872000000000298e+03, 4.224614999999999782e+03, 1.000000000000000000e+00, 1.000000000000000000e+00, 1.000000000000000000e+02
4.100000000000000000e+01, 4.254872000000000298e+03, 4.166154000000000451e+03, 4.135896999999999935e+03, 4.162564000000000306e+03, 4.215385000000000218e+03, 1.000000000000000000e+00, 1.000000000000000000e+00, 1.000000000000000000e+02
4.200000000000000000e+01, 4.254359000000000378e+03, 4.160000000000000000e+03, 4.132307999999999993e+03, 4.170769000000000233e+03, 4.215896999999999935e+03, 1.000000000000000000e+00, 1.000000000000000000e+00, 1.000000000000000000e+02
4.300000000000000000e+01, 4.260512999999999920e+03, 4.162051000000000386e+03, 4.129230999999999767e+03, 4.177948999999999614e+03, 4.224614999999999782e+03, 1.000000000000000000e+00, 1.000000000000000000e+00, 1.000000000000000000e+02
4.400000000000000000e+01, 4.261025999999999840e+03, 4.166154000000000451e+03, 4.113332999999999629e+03, 4.167179000000000087e+03, 4.220000000000000000e+03, 1.000000000000000000e+00, 1.000000000000000000e+00, 1.000000000000000000e+02
4.500000000000000000e+01, 4.256922999999999774e+03, 4.168204999999999927e+03, 4.105127999999999702e+03, 4.161025999999999840e+03, 4.211795000000000073e+03, 1.000000000000000000e+00, 1.000000000000000000e+00, 1.000000000000000000e+02
4.600000000000000000e+01, 4.250769000000000233e+03, 4.166154000000000451e+03, 4.116409999999999854e+03, 4.168717999999999847e+03, 4.214872000000000298e+03, 1.000000000000000000e+00, 1.000000000000000000e+00, 1.000000000000000000e+02
4.700000000000000000e+01, 4.245127999999999702e+03, 4.176409999999999854e+03, 4.127692000000000007e+03, 4.170256000000000313e+03, 4.213845999999999549e+03, 1.000000000000000000e+00, 1.000000000000000000e+00, 1.000000000000000000e+02
4.800000000000000000e+01, 4.244614999999999782e+03, 4.182564000000000306e+03, 4.129743999999999687e+03, 4.169743999999999687e+03, 4.209743999999999687e+03, 1.000000000000000000e+00, 1.000000000000000000e+00, 1.000000000000000000e+02
4.900000000000000000e+01, 4.246667000000000371e+03, 4.178462000000000444e+03, 4.130769000000000233e+03, 4.175385000000000218e+03, 4.210769000000000233e+03, 1.000000000000000000e+00, 1.000000000000000000e+00, 1.000000000000000000e+02
5.000000000000000000e+01, 4.247179000000000087e+03, 4.180512999999999920e+03, 4.140000000000000000e+03, 4.181537999999999556e+03, 4.214359000000000378e+03, 1.000000000000000000e+00, 1.000000000000000000e+00, 1.000000000000000000e+02
5.100000000000000000e+01, 4.245640999999999622e+03, 4.186667000000000371e+03, 4.138462000000000444e+03, 4.179487000000000080e+03, 4.218462000000000444e+03, 1.000000000000000000e+00, 1.000000000000000000e+00, 1.000000000000000000e+02
5.200000000000000000e+01, 4.241025999999999840e+03, 4.186667000000000371e+03, 4.126667000000000371e+03, 4.184103000000000065e+03, 4.220512999999999920e+03, 1.000000000000000000e+00, 1.000000000000000000e+00, 1.000000000000000000e+02
5.300000000000000000e+01, 4.236409999999999854e+03, 4.188717999999999847e+03, 4.123590000000000146e+03, 4.189230999999999767e+03, 4.223077000000000226e+03, 1.000000000000000000e+00, 1.000000000000000000e+00, 1.000000000000000000e+02
5.400000000000000000e+01, 4.237948999999999614e+03, 4.184614999999999782e+03, 4.121025999999999840e+03, 4.177435999999999694e+03, 4.223077000000000226e+03, 1.000000000000000000e+00, 1.000000000000000000e+00, 1.000000000000000000e+02
5.500000000000000000e+01, 4.242051000000000386e+03, 4.182564000000000306e+03, 4.110256000000000313e+03, 4.166667000000000371e+03, 4.221025999999999840e+03, 1.000000000000000000e+00, 1.000000000000000000e+00, 1.000000000000000000e+02
5.600000000000000000e+01, 4.238974000000000160e+03, 4.186667000000000371e+03, 4.105127999999999702e+03, 4.167692000000000007e+03, 4.220512999999999920e+03, 1.000000000000000000e+00, 1.000000000000000000e+00, 1.000000000000000000e+02
5.700000000000000000e+01, 4.231282000000000153e+03, 4.188717999999999847e+03, 4.109743999999999687e+03, 4.170256000000000313e+03, 4.214872000000000298e+03, 1.000000000000000000e+00, 1.000000000000000000e+00, 1.000000000000000000e+02
5.800000000000000000e+01, 4.225640999999999622e+03, 4.182564000000000306e+03, 4.109230999999999767e+03, 4.169230999999999767e+03, 4.207179000000000087e+03, 1.000000000000000000e+00, 1.000000000000000000e+00, 1.000000000000000000e+02
5.900000000000000000e+01, 4.219487000000000080e+03, 4.180512999999999920e+03, 4.111282000000000153e+03, 4.168717999999999847e+03, 4.205640999999999622e+03, 1.000000000000000000e+00, 1.000000000000000000e+00, 1.000000000000000000e+02
6.000000000000000000e+01, 4.217948999999999614e+03, 4.184614999999999782e+03, 4.121025999999999840e+03, 4.171795000000000073e+03, 4.211795000000000073e+03, 1.000000000000000000e+00, 1.000000000000000000e+00, 1.000000000000000000e+02
6.100000000000000000e+01, 4.218974000000000160e+03, 4.184614999999999782e+03, 4.124614999999999782e+03, 4.179487000000000080e+03, 4.216922999999999774e+03, 1.000000000000000000e+00, 1.000000000000000000e+00, 1.000000000000000000e+02
6.200000000000000000e+01, 4.212307999999999993e+03, 4.180512999999999920e+03, 4.122564000000000306e+03, 4.186667000000000371e+03, 4.208717999999999847e+03, 1.000000000000000000e+00, 1.000000000000000000e+00, 1.000000000000000000e+02
6.300000000000000000e+01, 4.210769000000000233e+03, 4.182564000000000306e+03, 4.129743999999999687e+03, 4.187692000000000007e+03, 4.204614999999999782e+03, 1.000000000000000000e+00, 1.000000000000000000e+00, 1.000000000000000000e+02
6.400000000000000000e+01, 4.221025999999999840e+03, 4.190769000000000233e+03, 4.136922999999999774e+03, 4.188717999999999847e+03, 4.217948999999999614e+03, 1.000000000000000000e+00, 1.000000000000000000e+00, 1.000000000000000000e+02
6.500000000000000000e+01, 4.220000000000000000e+03, 4.188717999999999847e+03, 4.122564000000000306e+03, 4.191282000000000153e+03, 4.221537999999999556e+03, 1.000000000000000000e+00, 1.000000000000000000e+00, 1.000000000000000000e+02
6.600000000000000000e+01, 4.215896999999999935e+03, 4.182564000000000306e+03, 4.107179000000000087e+03, 4.187179000000000087e+03, 4.208204999999999927e+03, 1.000000000000000000e+00, 1.000000000000000000e+00, 1.000000000000000000e+02
6.700000000000000000e+01, 4.221537999999999556e+03, 4.180512999999999920e+03, 4.107692000000000007e+03, 4.172307999999999993e+03, 4.199487000000000080e+03, 1.000000000000000000e+00, 1.000000000000000000e+00, 1.000000000000000000e+02
6.800000000000000000e+01, 4.227179000000000087e+03, 4.176409999999999854e+03, 4.101537999999999556e+03, 4.164103000000000065e+03, 4.214359000000000378e+03, 1.000000000000000000e+00, 1.000000000000000000e+00, 1.000000000000000000e+02
6.900000000000000000e+01, 4.227692000000000007e+03, 4.178462000000000444e+03, 4.092820999999999913e+03, 4.174359000000000378e+03, 4.228204999999999927e+03, 1.000000000000000000e+00, 1.000000000000000000e+00, 1.000000000000000000e+02
7.000000000000000000e+01, 4.228717999999999847e+03, 4.178462000000000444e+03, 4.093846000000000004e+03, 4.176409999999999854e+03, 4.218462000000000444e+03, 1.000000000000000000e+00, 1.000000000000000000e+00, 1.000000000000000000e+02
7.100000000000000000e+01, 4.231795000000000073e+03, 4.174359000000000378e+03, 4.103077000000000226e+03, 4.161025999999999840e+03, 4.208717999999999847e+03, 1.000000000000000000e+00, 1.000000000000000000e+00, 1.000000000000000000e+02
7.200000000000000000e+01, 4.232820999999999913e+03, 4.176409999999999854e+03, 4.113332999999999629e+03, 4.162051000000000386e+03, 4.202564000000000306e+03, 1.000000000000000000e+00, 1.000000000000000000e+00, 1.000000000000000000e+02
7.300000000000000000e+01, 4.242051000000000386e+03, 4.186667000000000371e+03, 4.125127999999999702e+03, 4.180512999999999920e+03, 4.206667000000000371e+03, 1.000000000000000000e+00, 1.000000000000000000e+00, 1.000000000000000000e+02
7.400000000000000000e+01, 4.249743999999999687e+03, 4.188717999999999847e+03, 4.127692000000000007e+03, 4.184103000000000065e+03, 4.217948999999999614e+03, 1.000000000000000000e+00, 1.000000000000000000e+00, 1.000000000000000000e+02
7.500000000000000000e+01, 4.246667000000000371e+03, 4.186667000000000371e+03, 4.121537999999999556e+03, 4.181025999999999840e+03, 4.220512999999999920e+03, 1.000000000000000000e+00, 1.000000000000000000e+00, 1.000000000000000000e+02
7.600000000000000000e+01, 4.252820999999999913e+03, 4.186667000000000371e+03, 4.118974000000000160e+03, 4.185640999999999622e+03, 4.223077000000000226e+03, 1.000000000000000000e+00, 1.000000000000000000e+00, 1.000000000000000000e+02
7.700000000000000000e+01, 4.264614999999999782e+03, 4.188717999999999847e+03, 4.116922999999999774e+03, 4.187692000000000007e+03, 4.226154000000000451e+03, 1.000000000000000000e+00, 1.000000000000000000e+00, 1.000000000000000000e+02
7.800000000000000000e+01, 4.266667000000000371e+03, 4.184614999999999782e+03, 4.114359000000000378e+03, 4.184614999999999782e+03, 4.226154000000000451e+03, 1.000000000000000000e+00, 1.000000000000000000e+00, 1.000000000000000000e+02
7.900000000000000000e+01, 4.266667000000000371e+03, 4.182564000000000306e+03, 4.109743999999999687e+03, 4.183077000000000226e+03, 4.227179000000000087e+03, 1.000000000000000000e+00, 1.000000000000000000e+00, 1.000000000000000000e+02
8.000000000000000000e+01, 4.274359000000000378e+03, 4.186667000000000371e+03, 4.100000000000000000e+03, 4.184103000000000065e+03, 4.231795000000000073e+03, 1.000000000000000000e+00, 1.000000000000000000e+00, 1.000000000000000000e+02
8.100000000000000000e+01, 4.275385000000000218e+03, 4.186667000000000371e+03, 4.087179000000000087e+03, 4.183590000000000146e+03, 4.229743999999999687e+03, 1.000000000000000000e+00, 1.000000000000000000e+00, 1.000000000000000000e+02
8.200000000000000000e+01, 4.261537999999999556e+03, 4.180512999999999920e+03, 4.090255999999999858e+03, 4.173332999999999629e+03, 4.214359000000000378e+03, 1.000000000000000000e+00, 1.000000000000000000e+00, 1.000000000000000000e+02
8.300000000000000000e+01, 4.242564000000000306e+03, 4.182564000000000306e+03, 4.109230999999999767e+03, 4.156409999999999854e+03, 4.201025999999999840e+03, 1.000000000000000000e+00, 1.000000000000000000e+00, 1.000000000000000000e+02
8.400000000000000000e+01, 4.232307999999999993e+03, 4.186667000000000371e+03, 4.110256000000000313e+03, 4.155385000000000218e+03, 4.199487000000000080e+03, 1.000000000000000000e+00, 1.000000000000000000e+00, 1.000000000000000000e+02
8.500000000000000000e+01, 4.241537999999999556e+03, 4.188717999999999847e+03, 4.109743999999999687e+03, 4.169743999999999687e+03, 4.209230999999999767e+03, 1.000000000000000000e+00, 1.000000000000000000e+00, 1.000000000000000000e+02
8.600000000000000000e+01, 4.247179000000000087e+03, 4.194872000000000298e+03, 4.127692000000000007e+03, 4.174359000000000378e+03, 4.215385000000000218e+03, 1.000000000000000000e+00, 1.000000000000000000e+00, 1.000000000000000000e+02
8.700000000000000000e+01, 4.233845999999999549e+03, 4.198974000000000160e+03, 4.129743999999999687e+03, 4.169230999999999767e+03, 4.201025999999999840e+03, 1.000000000000000000e+00, 1.000000000000000000e+00, 1.000000000000000000e+02
8.800000000000000000e+01, 4.226667000000000371e+03, 4.194872000000000298e+03, 4.116922999999999774e+03, 4.168717999999999847e+03, 4.186154000000000451e+03, 1.000000000000000000e+00, 1.000000000000000000e+00, 1.000000000000000000e+02
8.900000000000000000e+01, 4.221537999999999556e+03, 4.188717999999999847e+03, 4.117435999999999694e+03, 4.169743999999999687e+03, 4.180512999999999920e+03, 1.000000000000000000e+00, 1.000000000000000000e+00, 1.000000000000000000e+02
9.000000000000000000e+01, 4.210256000000000313e+03, 4.184614999999999782e+03, 4.110256000000000313e+03, 4.166154000000000451e+03, 4.173845999999999549e+03, 1.000000000000000000e+00, 1.000000000000000000e+00, 1.000000000000000000e+02
9.100000000000000000e+01, 4.219487000000000080e+03, 4.186667000000000371e+03, 4.091795000000000073e+03, 4.172307999999999993e+03, 4.181025999999999840e+03, 1.000000000000000000e+00, 1.000000000000000000e+00, 1.000000000000000000e+02
9.200000000000000000e+01, 4.236922999999999774e+03, 4.184614999999999782e+03, 4.086153999999999996e+03, 4.174359000000000378e+03, 4.193332999999999629e+03, 1.000000000000000000e+00, 1.000000000000000000e+00, 1.000000000000000000e+02
9.300000000000000000e+01, 4.236409999999999854e+03, 4.182564000000000306e+03, 4.086666999999999916e+03, 4.170256000000000313e+03, 4.194359000000000378e+03, 1.000000000000000000e+00, 1.000000000000000000e+00, 1.000000000000000000e+02
9.400000000000000000e+01, 4.232307999999999993e+03, 4.192820999999999913e+03, 4.092820999999999913e+03, 4.177948999999999614e+03, 4.193845999999999549e+03, 1.000000000000000000e+00, 1.000000000000000000e+00, 1.000000000000000000e+02
9.500000000000000000e+01, 4.233332999999999629e+03, 4.198974000000000160e+03, 4.106667000000000371e+03, 4.183590000000000146e+03, 4.189743999999999687e+03, 1.000000000000000000e+00, 1.000000000000000000e+00, 1.000000000000000000e+02
9.600000000000000000e+01, 4.230769000000000233e+03, 4.192820999999999913e+03, 4.118462000000000444e+03, 4.176409999999999854e+03, 4.184103000000000065e+03, 1.000000000000000000e+00, 1.000000000000000000e+00, 1.000000000000000000e+02
9.700000000000000000e+01, 4.229230999999999767e+03, 4.186667000000000371e+03, 4.117948999999999614e+03, 4.163590000000000146e+03, 4.184103000000000065e+03, 1.000000000000000000e+00, 1.000000000000000000e+00, 1.000000000000000000e+02
9.800000000000000000e+01, 4.229743999999999687e+03, 4.186667000000000371e+03, 4.123077000000000226e+03, 4.154872000000000298e+03, 4.187692000000000007e+03, 1.000000000000000000e+00, 1.000000000000000000e+00, 1.000000000000000000e+02
9.900000000000000000e+01, 4.232820999999999913e+03, 4.188717999999999847e+03, 4.137948999999999614e+03, 4.157948999999999614e+03, 4.192820999999999913e+03, 1.000000000000000000e+00, 1.000000000000000000e+00, 1.000000000000000000e+02
1.000000000000000000e+02, 4.236922999999999774e+03, 4.196922999999999774e+03, 4.136409999999999854e+03, 4.175896999999999935e+03, 4.196922999999999774e+03, 1.000000000000000000e+00, 1.000000000000000000e+00, 1.000000000000000000e+02
1.010000000000000000e+02, 4.246667000000000371e+03, 4.203077000000000226e+03, 4.122051000000000386e+03, 4.185127999999999702e+03, 4.205640999999999622e+03, 1.000000000000000000e+00, 1.000000000000000000e+00, 1.000000000000000000e+02
1.020000000000000000e+02, 4.266667000000000371e+03, 4.205127999999999702e+03, 4.121025999999999840e+03, 4.178462000000000444e+03, 4.222051000000000386e+03, 1.000000000000000000e+00, 1.000000000000000000e+00, 1.000000000000000000e+02
1.030000000000000000e+02, 4.283077000000000226e+03, 4.213332999999999629e+03, 4.121025999999999840e+03, 4.183590000000000146e+03, 4.235896999999999935e+03, 1.000000000000000000e+00, 1.000000000000000000e+00, 1.000000000000000000e+02
1.040000000000000000e+02, 4.283077000000000226e+03, 4.213332999999999629e+03, 4.107179000000000087e+03, 4.188717999999999847e+03, 4.241025999999999840e+03, 1.000000000000000000e+00, 1.000000000000000000e+00, 1.000000000000000000e+02
1.050000000000000000e+02, 4.272820999999999913e+03, 4.207179000000000087e+03, 4.102564000000000306e+03, 4.182564000000000306e+03, 4.237435999999999694e+03, 1.000000000000000000e+00, 1.000000000000000000e+00, 1.000000000000000000e+02
1.060000000000000000e+02, 4.260512999999999920e+03, 4.209230999999999767e+03, 4.107692000000000007e+03, 4.185640999999999622e+03, 4.222051000000000386e+03, 1.000000000000000000e+00, 1.000000000000000000e+00, 1.000000000000000000e+02
1.070000000000000000e+02, 4.245127999999999702e+03, 4.205127999999999702e+03, 4.102564000000000306e+03, 4.186154000000000451e+03, 4.195385000000000218e+03, 1.000000000000000000e+00, 1.000000000000000000e+00, 1.000000000000000000e+02
1.080000000000000000e+02, 4.236922999999999774e+03, 4.192820999999999913e+03, 4.111795000000000073e+03, 4.174359000000000378e+03, 4.185640999999999622e+03, 1.000000000000000000e+00, 1.000000000000000000e+00, 1.000000000000000000e+02
1.090000000000000000e+02, 4.243590000000000146e+03, 4.198974000000000160e+03, 4.136409999999999854e+03, 4.175896999999999935e+03, 4.193845999999999549e+03, 1.000000000000000000e+00, 1.000000000000000000e+00, 1.000000000000000000e+02
1.100000000000000000e+02, 4.240512999999999920e+03, 4.205127999999999702e+03, 4.136409999999999854e+03, 4.185640999999999622e+03, 4.193332999999999629e+03, 1.000000000000000000e+00, 1.000000000000000000e+00, 1.000000000000000000e+02
1.110000000000000000e+02, 4.233845999999999549e+03, 4.194872000000000298e+03, 4.122564000000000306e+03, 4.175385000000000218e+03, 4.197435999999999694e+03, 1.000000000000000000e+00, 1.000000000000000000e+00, 1.000000000000000000e+02
1.120000000000000000e+02, 4.241025999999999840e+03, 4.188717999999999847e+03, 4.123590000000000146e+03, 4.166667000000000371e+03, 4.210256000000000313e+03, 1.000000000000000000e+00, 1.000000000000000000e+00, 1.000000000000000000e+02
1.130000000000000000e+02, 4.244103000000000065e+03, 4.190769000000000233e+03, 4.115896999999999935e+03, 4.167692000000000007e+03, 4.207692000000000007e+03, 1.000000000000000000e+00, 1.000000000000000000e+00, 1.000000000000000000e+02
1.140000000000000000e+02, 4.245640999999999622e+03, 4.184614999999999782e+03, 4.104103000000000065e+03, 4.168204999999999927e+03, 4.208717999999999847e+03, 1.000000000000000000e+00, 1.000000000000000000e+00, 1.000000000000000000e+02
1.150000000000000000e+02, 4.254359000000000378e+03, 4.182564000000000306e+03, 4.104614999999999782e+03, 4.173845999999999549e+03, 4.221025999999999840e+03, 1.000000000000000000e+00, 1.000000000000000000e+00, 1.000000000000000000e+02
1.160000000000000000e+02, 4.255896999999999935e+03, 4.184614999999999782e+03, 4.096922999999999774e+03, 4.176409999999999854e+03, 4.214872000000000298e+03, 1.000000000000000000e+00, 1.000000000000000000e+00, 1.000000000000000000e+02
1.170000000000000000e+02, 4.247692000000000007e+03, 4.186667000000000371e+03, 4.087179000000000087e+03, 4.168717999999999847e+03, 4.192307999999999993e+03, 1.000000000000000000e+00, 1.000000000000000000e+00, 1.000000000000000000e+02
1.180000000000000000e+02, 4.244614999999999782e+03, 4.194872000000000298e+03, 4.094871999999999844e+03, 4.167179000000000087e+03, 4.187692000000000007e+03, 1.000000000000000000e+00, 1.000000000000000000e+00, 1.000000000000000000e+02
1.190000000000000000e+02, 4.243077000000000226e+03, 4.194872000000000298e+03, 4.097435999999999694e+03, 4.170769000000000233e+03, 4.194872000000000298e+03, 1.000000000000000000e+00, 1.000000000000000000e+00, 1.000000000000000000e+02
1.200000000000000000e+02, 4.233332999999999629e+03, 4.186667000000000371e+03, 4.084614999999999782e+03, 4.166667000000000371e+03, 4.182051000000000386e+03, 1.000000000000000000e+00, 1.000000000000000000e+00, 1.000000000000000000e+02
1.210000000000000000e+02, 4.230256000000000313e+03, 4.192820999999999913e+03, 4.088204999999999927e+03, 4.163590000000000146e+03, 4.167692000000000007e+03, 1.000000000000000000e+00, 1.000000000000000000e+00, 1.000000000000000000e+02
1.220000000000000000e+02, 4.229743999999999687e+03, 4.201025999999999840e+03, 4.107692000000000007e+03, 4.165127999999999702e+03, 4.171282000000000153e+03, 1.000000000000000000e+00, 1.000000000000000000e+00, 1.000000000000000000e+02
1.230000000000000000e+02, 4.227692000000000007e+03, 4.205127999999999702e+03, 4.122051000000000386e+03, 4.165640999999999622e+03, 4.175896999999999935e+03, 1.000000000000000000e+00, 1.000000000000000000e+00, 1.000000000000000000e+02
1.240000000000000000e+02, 4.230769000000000233e+03, 4.213332999999999629e+03, 4.130256000000000313e+03, 4.170256000000000313e+03, 4.178974000000000160e+03, 1.000000000000000000e+00, 1.000000000000000000e+00, 1.000000000000000000e+02
1.250000000000000000e+02, 4.231795000000000073e+03, 4.219487000000000080e+03, 4.124103000000000065e+03, 4.173332999999999629e+03, 4.177948999999999614e+03, 1.000000000000000000e+00, 1.000000000000000000e+00, 1.000000000000000000e+02
1.260000000000000000e+02, 4.234359000000000378e+03, 4.215385000000000218e+03, 4.108717999999999847e+03, 4.167692000000000007e+03, 4.180000000000000000e+03, 1.000000000000000000e+00, 1.000000000000000000e+00, 1.000000000000000000e+02
1.270000000000000000e+02, 4.236922999999999774e+03, 4.207179000000000087e+03, 4.101537999999999556e+03, 4.156409999999999854e+03, 4.183590000000000146e+03, 1.000000000000000000e+00, 1.000000000000000000e+00, 1.000000000000000000e+02
0.000000000000000000e+00, 4.228204999999999927e+03, 4.205127999999999702e+03, 4.099487000000000080e+03, 4.154359000000000378e+03, 4.176922999999999774e+03, 1.000000000000000000e+00, 1.000000000000000000e+00, 1.000000000000000000e+02
1.000000000000000000e+00, 4.222564000000000306e+03, 4.203077000000000226e+03, 4.097948999999999614e+03, 4.165127999999999702e+03, 4.175896999999999935e+03, 1.000000000000000000e+00, 1.000000000000000000e+00, 1.000000000000000000e+02
2.000000000000000000e+00, 4.230256000000000313e+03, 4.198974000000000160e+03, 4.103077000000000226e+03, 4.175385000000000218e+03, 4.187179000000000087e+03, 1.000000000000000000e+00, 1.000000000000000000e+00, 1.000000000000000000e+02
3.000000000000000000e+00, 4.231795000000000073e+03, 4.198974000000000160e+03, 4.109230999999999767e+03, 4.183590000000000146e+03, 4.193845999999999549e+03, 1.000000000000000000e+00, 1.000000000000000000e+00, 1.000000000000000000e+02
4.000000000000000000e+00, 4.220512999999999920e+03, 4.198974000000000160e+03, 4.113332999999999629e+03, 4.188204999999999927e+03, 4.187692000000000007e+03, 1.000000000000000000e+00, 1.000000000000000000e+00, 1.000000000000000000e+02
5.000000000000000000e+00, 4.209230999999999767e+03, 4.192820999999999913e+03, 4.116922999999999774e+03, 4.184614999999999782e+03, 4.178462000000000444e+03, 1.000000000000000000e+00, 1.000000000000000000e+00, 1.000000000000000000e+02
6.000000000000000000e+00, 4.207692000000000007e+03, 4.190769000000000233e+03, 4.124103000000000065e+03, 4.187179000000000087e+03, 4.182051000000000386e+03, 1.000000000000000000e+00, 1.000000000000000000e+00, 1.000000000000000000e+02
7.000000000000000000e+00, 4.210769000000000233e+03, 4.201025999999999840e+03, 4.131282000000000153e+03, 4.197435999999999694e+03, 4.183077000000000226e+03, 1.000000000000000000e+00, 1.000000000000000000e+00, 1.000000000000000000e+02
8.000000000000000000e+00, 4.209230999999999767e+03, 4.211282000000000153e+03, 4.127692000000000007e+03, 4.193845999999999549e+03, 4.171795000000000073e+03, 1.000000000000000000e+00, 1.000000000000000000e+00, 1.000000000000000000e+02
9.000000000000000000e+00, 4.203590000000000146e+03, 4.217435999999999694e+03, 4.118462000000000444e+03, 4.175385000000000218e+03, 4.167179000000000087e+03, 1.000000000000000000e+00, 1.000000000000000000e+00, 1.000000000000000000e+02
1.000000000000000000e+01, 4.193845999999999549e+03, 4.227692000000000007e+03, 4.115385000000000218e+03, 4.162564000000000306e+03, 4.162564000000000306e+03, 1.000000000000000000e+00, 1.000000000000000000e+00, 1.000000000000000000e+02
1.100000000000000000e+01, 4.188204999999999927e+03, 4.227692000000000007e+03, 4.107692000000000007e+03, 4.160000000000000000e+03, 4.147692000000000007e+03, 1.000000000000000000e+00, 1.000000000000000000e+00, 1.000000000000000000e+02
1.200000000000000000e+01, 4.186667000000000371e+03, 4.221537999999999556e+03, 4.092820999999999913e+03, 4.158974000000000160e+03, 4.139487000000000080e+03, 1.000000000000000000e+00, 1.000000000000000000e+00, 1.000000000000000000e+02
1.300000000000000000e+01, 4.178462000000000444e+03, 4.211282000000000153e+03, 4.088717999999999847e+03, 4.153332999999999629e+03, 4.143077000000000226e+03, 1.000000000000000000e+00, 1.000000000000000000e+00, 1.000000000000000000e+02
1.400000000000000000e+01, 4.167179000000000087e+03, 4.201025999999999840e+03, 4.090255999999999858e+03, 4.149230999999999767e+03, 4.140000000000000000e+03, 1.000000000000000000e+00, 1.000000000000000000e+00, 1.000000000000000000e+02
1.500000000000000000e+01, 4.158462000000000444e+03, 4.188717999999999847e+03, 4.088717999999999847e+03, 4.154359000000000378e+03, 4.129230999999999767e+03, 1.000000000000000000e+00, 1.000000000000000000e+00, 1.000000000000000000e+02
1.600000000000000000e+01, 4.154872000000000298e+03, 4.182564000000000306e+03, 4.098462000000000444e+03, 4.166667000000000371e+03, 4.137435999999999694e+03, 1.000000000000000000e+00, 1.000000000000000000e+00, 1.000000000000000000e+02
1.700000000000000000e+01, 4.157948999999999614e+03, 4.192820999999999913e+03, 4.115896999999999935e+03, 4.181537999999999556e+03, 4.156409999999999854e+03, 1.000000000000000000e+00, 1.000000000000000000e+00, 1.000000000000000000e+02
1.800000000000000000e+01, 4.160512999999999920e+03, 4.207179000000000087e+03, 4.124103000000000065e+03, 4.181025999999999840e+03, 4.153845999999999549e+03, 1.000000000000000000e+00, 1.000000000000000000e+00, 1.000000000000000000e+02
1.900000000000000000e+01, 4.154359000000000378e+03, 4.211282000000000153e+03, 4.118974000000000160e+03, 4.167179000000000087e+03, 4.137948999999999614e+03, 1.000000000000000000e+00, 1.000000000000000000e+00, 1.000000000000000000e+02
2.000000000000000000e+01, 4.151282000000000153e+03, 4.213332999999999629e+03, 4.113332999999999629e+03, 4.175896999999999935e+03, 4.127692000000000007e+03, 1.000000000000000000e+00, 1.000000000000000000e+00, 1.000000000000000000e+02
2.100000000000000000e+01, 4.150256000000000313e+03, 4.221537999999999556e+03, 4.112820999999999913e+03, 4.190256000000000313e+03, 4.118974000000000160e+03, 1.000000000000000000e+00, 1.000000000000000000e+00, 1.000000000000000000e+02
2.200000000000000000e+01, 4.138462000000000444e+03, 4.225640999999999622e+03, 4.108204999999999927e+03, 4.167692000000000007e+03, 4.104103000000000065e+03, 1.000000000000000000e+00, 1.000000000000000000e+00, 1.000000000000000000e+02
2.300000000000000000e+01, 4.135385000000000218e+03, 4.221537999999999556e+03, 4.101025999999999840e+03, 4.150769000000000233e+03, 4.091282000000000153e+03, 1.000000000000000000e+00, 1.000000000000000000e+00, 1.000000000000000000e+02
2.400000000000000000e+01, 4.138974000000000160e+03, 4.221537999999999556e+03, 4.100000000000000000e+03, 4.170769000000000233e+03, 4.089231000000000222e+03, 1.000000000000000000e+00, 1.000000000000000000e+00, 1.000000000000000000e+02
2.500000000000000000e+01, 4.127692000000000007e+03, 4.217435999999999694e+03, 4.100512999999999920e+03, 4.174872000000000298e+03, 4.085128000000000156e+03, 1.000000000000000000e+00, 1.000000000000000000e+00, 1.000000000000000000e+02
2.600000000000000000e+01, 4.120512999999999920e+03, 4.205127999999999702e+03, 4.102564000000000306e+03, 4.165640999999999622e+03, 4.080512999999999920e+03, 1.000000000000000000e+00, 1.000000000000000000e+00, 1.000000000000000000e+02
2.700000000000000000e+01, 4.125640999999999622e+03, 4.201025999999999840e+03, 4.110256000000000313e+03, 4.164103000000000065e+03, 4.076409999999999854e+03, 1.000000000000000000e+00, 1.000000000000000000e+00, 1.000000000000000000e+02
2.800000000000000000e+01, 4.122051000000000386e+03, 4.201025999999999840e+03, 4.120000000000000000e+03, 4.164614999999999782e+03, 4.068717999999999847e+03, 1.000000000000000000e+00, 1.000000000000000000e+00, 1.000000000000000000e+02
2.900000000000000000e+01, 4.120000000000000000e+03, 4.205127999999999702e+03, 4.136409999999999854e+03, 4.177948999999999614e+03, 4.070768999999999778e+03, 1.000000000000000000e+00, 1.000000000000000000e+00, 1.000000000000000000e+02
3.000000000000000000e+01, 4.118462000000000444e+03, 4.209230999999999767e+03, 4.154359000000000378e+03, 4.194359000000000378e+03, 4.072307999999999993e+03, 1.000000000000000000e+00, 1.000000000000000000e+00, 1.000000000000000000e+02
3.100000000000000000e+01, 4.102051000000000386e+03, 4.203077000000000226e+03, 4.157435999999999694e+03, 4.194872000000000298e+03, 4.063077000000000226e+03, 1.000000000000000000e+00, 1.000000000000000000e+00, 1.000000000000000000e+02
3.200000000000000000e+01, 4.088717999999999847e+03, 4.201025999999999840e+03, 4.143590000000000146e+03, 4.196409999999999854e+03, 4.054871999999999844e+03, 1.000000000000000000e+00, 1.000000000000000000e+00, 1.000000000000000000e+02
3.300000000000000000e+01, 4.091795000000000073e+03, 4.211282000000000153e+03, 4.142051000000000386e+03, 4.205640999999999622e+03, 4.056922999999999774e+03, 1.000000000000000000e+00, 1.000000000000000000e+00, 1.000000000000000000e+02
3.400000000000000000e+01, 4.097435999999999694e+03, 4.211282000000000153e+03, 4.144614999999999782e+03, 4.204103000000000065e+03, 4.055896999999999935e+03, 1.000000000000000000e+00, 1.000000000000000000e+00, 1.000000000000000000e+02
3.500000000000000000e+01, 4.091282000000000153e+03, 4.198974000000000160e+03, 4.121537999999999556e+03, 4.191795000000000073e+03, 4.037436000000000149e+03, 1.000000000000000000e+00, 1.000000000000000000e+00, 1.000000000000000000e+02
3.600000000000000000e+01, 4.078974000000000160e+03, 4.201025999999999840e+03, 4.101025999999999840e+03, 4.181025999999999840e+03, 4.027179000000000087e+03, 1.000000000000000000e+00, 1.000000000000000000e+00, 1.000000000000000000e+02
3.700000000000000000e+01, 4.071795000000000073e+03, 4.207179000000000087e+03, 4.106667000000000371e+03, 4.174359000000000378e+03, 4.030255999999999858e+03, 1.000000000000000000e+00, 1.000000000000000000e+00, 1.000000000000000000e+02
3.800000000000000000e+01, 4.063077000000000226e+03, 4.196922999999999774e+03, 4.107692000000000007e+03, 4.164614999999999782e+03, 4.008204999999999927e+03, 1.000000000000000000e+00, 1.000000000000000000e+00, 1.000000000000000000e+02
3.900000000000000000e+01, 4.059487000000000080e+03, 4.186667000000000371e+03, 4.103590000000000146e+03, 4.160000000000000000e+03, 3.992307999999999993e+03, 1.000000000000000000e+00, 1.000000000000000000e+00, 1.000000000000000000e+02
4.000000000000000000e+01, 4.068717999999999847e+03, 4.190769000000000233e+03, 4.114359000000000378e+03, 4.173845999999999549e+03, 4.008717999999999847e+03, 1.000000000000000000e+00, 1.000000000000000000e+00, 1.000000000000000000e+02
4.100000000000000000e+01, 4.070768999999999778e+03, 4.201025999999999840e+03, 4.125640999999999622e+03, 4.178974000000000160e+03, 4.014871999999999844e+03, 1.000000000000000000e+00, 1.000000000000000000e+00, 1.000000000000000000e+02
4.200000000000000000e+01, 4.063590000000000146e+03, 4.201025999999999840e+03, 4.123590000000000146e+03, 4.169743999999999687e+03, 3.999487000000000080e+03, 1.000000000000000000e+00, 1.000000000000000000e+00, 1.000000000000000000e+02
4.300000000000000000e+01, 4.060512999999999920e+03, 4.196922999999999774e+03, 4.125127999999999702e+03, 4.169230999999999767e+03, 3.988204999999999927e+03, 1.000000000000000000e+00, 1.000000000000000000e+00, 1.000000000000000000e+02
4.400000000000000000e+01, 4.060512999999999920e+03, 4.203077000000000226e+03, 4.132307999999999993e+03, 4.175896999999999935e+03, 3.985641000000000076e+03, 1.000000000000000000e+00, 1.000000000000000000e+00, 1.000000000000000000e+02
4.500000000000000000e+01, 4.053333000000000084e+03, 4.198974000000000160e+03, 4.139487000000000080e+03, 4.178462000000000444e+03, 3.982050999999999931e+03, 1.000000000000000000e+00, 1.000000000000000000e+00, 1.000000000000000000e+02
4.600000000000000000e+01, 4.041025999999999840e+03, 4.184614999999999782e+03, 4.139487000000000080e+03, 4.176409999999999854e+03, 3.975896999999999935e+03, 1.000000000000000000e+00, 1.000000000000000000e+00, 1.000000000000000000e+02
4.700000000000000000e+01, 4.022563999999999851e+03, 4.182564000000000306e+03, 4.121025999999999840e+03, 4.171282000000000153e+03, 3.961025999999999840e+03, 1.000000000000000000e+00, 1.000000000000000000e+00, 1.000000000000000000e+02
4.800000000000000000e+01, 4.007179000000000087e+03, 4.182564000000000306e+03, 4.094871999999999844e+03, 4.167692000000000007e+03, 3.942050999999999931e+03, 1.000000000000000000e+00, 1.000000000000000000e+00, 1.000000000000000000e+02
4.900000000000000000e+01, 4.006153999999999996e+03, 4.172307999999999993e+03, 4.093846000000000004e+03, 4.172307999999999993e+03, 3.937949000000000069e+03, 1.000000000000000000e+00, 1.000000000000000000e+00, 1.000000000000000000e+02
5.000000000000000000e+01, 4.001538000000000011e+03, 4.166154000000000451e+03, 4.103590000000000146e+03, 4.166154000000000451e+03, 3.928717999999999847e+03, 1.000000000000000000e+00, 1.000000000000000000e+00, 1.000000000000000000e+02
5.100000000000000000e+01, 3.991282000000000153e+03, 4.170256000000000313e+03, 4.103590000000000146e+03, 4.153845999999999549e+03, 3.911282000000000153e+03, 1.000000000000000000e+00, 1.000000000000000000e+00, 1.000000000000000000e+02
5.200000000000000000e+01, 3.990768999999999778e+03, 4.170256000000000313e+03, 4.109743999999999687e+03, 4.158974000000000160e+03, 3.910255999999999858e+03, 1.000000000000000000e+00, 1.000000000000000000e+00, 1.000000000000000000e+02
5.300000000000000000e+01, 3.988204999999999927e+03, 4.168204999999999927e+03, 4.122051000000000386e+03, 4.173845999999999549e+03, 3.912820999999999913e+03, 1.000000000000000000e+00, 1.000000000000000000e+00, 1.000000000000000000e+02
5.400000000000000000e+01, 3.978974000000000160e+03, 4.172307999999999993e+03, 4.123077000000000226e+03, 4.176922999999999774e+03, 3.908204999999999927e+03, 1.000000000000000000e+00, 1.000000000000000000e+00, 1.000000000000000000e+02
5.500000000000000000e+01, 3.967692000000000007e+03, 4.174359000000000378e+03, 4.117435999999999694e+03, 4.168204999999999927e+03, 3.895896999999999935e+03, 1.000000000000000000e+00, 1.000000000000000000e+00, 1.000000000000000000e+02
5.600000000000000000e+01, 3.952820999999999913e+03, 4.174359000000000378e+03, 4.111282000000000153e+03, 4.166154000000000451e+03, 3.878461999999999989e+03, 1.000000000000000000e+00, 1.000000000000000000e+00, 1.000000000000000000e+02
5.700000000000000000e+01, 3.941025999999999840e+03, 4.174359000000000378e+03, 4.106154000000000451e+03, 4.171795000000000073e+03, 3.868717999999999847e+03, 1.000000000000000000e+00, 1.000000000000000000e+00, 1.000000000000000000e+02
5.800000000000000000e+01, 3.935385000000000218e+03, 4.168204999999999927e+03, 4.105640999999999622e+03, 4.168204999999999927e+03, 3.864103000000000065e+03, 1.000000000000000000e+00, 1.000000000000000000e+00, 1.000000000000000000e+02
5.900000000000000000e+01, 3.927692000000000007e+03, 4.157948999999999614e+03, 4.102564000000000306e+03, 4.156922999999999774e+03, 3.854871999999999844e+03, 1.000000000000000000e+00, 1.000000000000000000e+00, 1.000000000000000000e+02
6.000000000000000000e+01, 3.914871999999999844e+03, 4.157948999999999614e+03, 4.101025999999999840e+03, 4.150256000000000313e+03, 3.840000000000000000e+03, 1.000000000000000000e+00, 1.000000000000000000e+00, 1.000000000000000000e+02
6.100000000000000000e+01, 3.911795000000000073e+03, 4.160000000000000000e+03, 4.115896999999999935e+03, 4.155896999999999935e+03, 3.834358999999999924e+03, 1.000000000000000000e+00, 1.000000000000000000e+00, 1.000000000000000000e+02
6.200000000000000000e+01, 3.914358999999999924e+03, 4.155896999999999935e+03, 4.129230999999999767e+03, 4.162564000000000306e+03, 3.835385000000000218e+03, 1.000000000000000000e+00, 1.000000000000000000e+00, 1.000000000000000000e+02
6.300000000000000000e+01, 3.900000000000000000e+03, 4.149743999999999687e+03, 4.124103000000000065e+03, 4.163590000000000146e+03, 3.825641000000000076e+03, 1.000000000000000000e+00, 1.000000000000000000e+00, 1.000000000000000000e+02
6.400000000000000000e+01, 3.881538000000000011e+03, 4.149743999999999687e+03, 4.121537999999999556e+03, 4.163590000000000146e+03, 3.814358999999999924e+03, 1.000000000000000000e+00, 1.000000000000000000e+00, 1.000000000000000000e+02
6.500000000000000000e+01, 3.877949000000000069e+03, 4.147692000000000007e+03, 4.126667000000000371e+03, 4.161537999999999556e+03, 3.813846000000000004e+03, 1.000000000000000000e+00, 1.000000000000000000e+00, 1.000000000000000000e+02
6.600000000000000000e+01, 3.870768999999999778e+03, 4.149743999999999687e+03, 4.124103000000000065e+03, 4.154359000000000378e+03, 3.810768999999999778e+03, 1.000000000000000000e+00, 1.000000000000000000e+00, 1.000000000000000000e+02
6.700000000000000000e+01, 3.855385000000000218e+03, 4.151795000000000073e+03, 4.112820999999999913e+03, 4.155385000000000218e+03, 3.796922999999999774e+03, 1.000000000000000000e+00, 1.000000000000000000e+00, 1.000000000000000000e+02
6.800000000000000000e+01, 3.843077000000000226e+03, 4.147692000000000007e+03, 4.095896999999999935e+03, 4.161025999999999840e+03, 3.782050999999999931e+03, 1.000000000000000000e+00, 1.000000000000000000e+00, 1.000000000000000000e+02
6.900000000000000000e+01, 3.837949000000000069e+03, 4.143590000000000146e+03, 4.091795000000000073e+03, 4.160000000000000000e+03, 3.777436000000000149e+03, 1.000000000000000000e+00, 1.000000000000000000e+00, 1.000000000000000000e+02
7.000000000000000000e+01, 3.840512999999999920e+03, 4.149743999999999687e+03, 4.109743999999999687e+03, 4.163590000000000146e+03, 3.779487000000000080e+03, 1.000000000000000000e+00, 1.000000000000000000e+00, 1.000000000000000000e+02
7.100000000000000000e+01, 3.842563999999999851e+03, 4.162051000000000386e+03, 4.126667000000000371e+03, 4.172307999999999993e+03, 3.777949000000000069e+03, 1.000000000000000000e+00, 1.000000000000000000e+00, 1.000000000000000000e+02
7.200000000000000000e+01, 3.827179000000000087e+03, 4.170256000000000313e+03, 4.127179000000000087e+03, 4.175896999999999935e+03, 3.776409999999999854e+03, 1.000000000000000000e+00, 1.000000000000000000e+00, 1.000000000000000000e+02
7.300000000000000000e+01, 3.801025999999999840e+03, 4.172307999999999993e+03, 4.122564000000000306e+03, 4.180512999999999920e+03, 3.763077000000000226e+03, 1.000000000000000000e+00, 1.000000000000000000e+00, 1.000000000000000000e+02
7.400000000000000000e+01, 3.782050999999999931e+03, 4.168204999999999927e+03, 4.129743999999999687e+03, 4.188717999999999847e+03, 3.744614999999999782e+03, 1.000000000000000000e+00, 1.000000000000000000e+00, 1.000000000000000000e+02
7.500000000000000000e+01, 3.767179000000000087e+03, 4.166154000000000451e+03, 4.140000000000000000e+03, 4.189230999999999767e+03, 3.735896999999999935e+03, 1.000000000000000000e+00, 1.000000000000000000e+00, 1.000000000000000000e+02
7.600000000000000000e+01, 3.746153999999999996e+03, 4.170256000000000313e+03, 4.135896999999999935e+03, 4.178974000000000160e+03, 3.725641000000000076e+03, 1.000000000000000000e+00, 1.000000000000000000e+00, 1.000000000000000000e+02
7.700000000000000000e+01, 3.726153999999999996e+03, 4.172307999999999993e+03, 4.124103000000000065e+03, 4.170769000000000233e+03, 3.715896999999999935e+03, 1.000000000000000000e+00, 1.000000000000000000e+00, 1.000000000000000000e+02
7.800000000000000000e+01, 3.704614999999999782e+03, 4.166154000000000451e+03, 4.122564000000000306e+03, 4.170256000000000313e+03, 3.714358999999999924e+03, 1.000000000000000000e+00, 1.000000000000000000e+00, 1.000000000000000000e+02
7.900000000000000000e+01, 3.685641000000000076e+03, 4.157948999999999614e+03, 4.121537999999999556e+03, 4.173332999999999629e+03, 3.710768999999999778e+03, 1.000000000000000000e+00, 1.000000000000000000e+00, 1.000000000000000000e+02
8.000000000000000000e+01, 3.673846000000000004e+03, 4.151795000000000073e+03, 4.115385000000000218e+03, 4.170256000000000313e+03, 3.698461999999999989e+03, 1.000000000000000000e+00, 1.000000000000000000e+00, 1.000000000000000000e+02
8.100000000000000000e+01, 3.653333000000000084e+03, 4.151795000000000073e+03, 4.118974000000000160e+03, 4.167692000000000007e+03, 3.680000000000000000e+03, 1.000000000000000000e+00, 1.000000000000000000e+00, 1.000000000000000000e+02
8.200000000000000000e+01, 3.629231000000000222e+03, 4.149743999999999687e+03, 4.124614999999999782e+03, 4.167179000000000087e+03, 3.666153999999999996e+03, 1.000000000000000000e+00, 1.000000000000000000e+00, 1.000000000000000000e+02
8.300000000000000000e+01, 3.618461999999999989e+03, 4.151795000000000073e+03, 4.123077000000000226e+03, 4.166667000000000371e+03, 3.655896999999999935e+03, 1.000000000000000000e+00, 1.000000000000000000e+00, 1.000000000000000000e+02
8.400000000000000000e+01, 3.613333000000000084e+03, 4.157948999999999614e+03, 4.125127999999999702e+03, 4.168204999999999927e+03, 3.651282000000000153e+03, 1.000000000000000000e+00, 1.000000000000000000e+00, 1.000000000000000000e+02
8.500000000000000000e+01, 3.593846000000000004e+03, 4.157948999999999614e+03, 4.126154000000000451e+03, 4.158974000000000160e+03, 3.638974000000000160e+03, 1.000000000000000000e+00, 1.000000000000000000e+00, 1.000000000000000000e+02
8.600000000000000000e+01, 3.573333000000000084e+03, 4.149743999999999687e+03, 4.117435999999999694e+03, 4.145640999999999622e+03, 3.616409999999999854e+03, 1.000000000000000000e+00, 1.000000000000000000e+00, 1.000000000000000000e+02
8.700000000000000000e+01, 3.571282000000000153e+03, 4.149743999999999687e+03, 4.112307999999999993e+03, 4.157435999999999694e+03, 3.615896999999999935e+03, 1.000000000000000000e+00, 1.000000000000000000e+00, 1.000000000000000000e+02
8.800000000000000000e+01, 3.563077000000000226e+03, 4.151795000000000073e+03, 4.109743999999999687e+03, 4.172307999999999993e+03, 3.619487000000000080e+03, 1.000000000000000000e+00, 1.000000000000000000e+00, 1.000000000000000000e+02
8.900000000000000000e+01, 3.541025999999999840e+03, 4.145640999999999622e+03, 4.103077000000000226e+03, 4.162051000000000386e+03, 3.600512999999999920e+03, 1.000000000000000000e+00, 1.000000000000000000e+00, 1.000000000000000000e+02
9.000000000000000000e+01, 3.531282000000000153e+03, 4.147692000000000007e+03, 4.105640999999999622e+03, 4.151795000000000073e+03, 3.585641000000000076e+03, 1.000000000000000000e+00, 1.000000000000000000e+00, 1.000000000000000000e+02
9.100000000000000000e+01, 3.534871999999999844e+03, 4.153845999999999549e+03, 4.117435999999999694e+03, 4.162051000000000386e+03, 3.590255999999999858e+03, 1.000000000000000000e+00, 1.000000000000000000e+00, 1.000000000000000000e+02
9.200000000000000000e+01, 3.537436000000000149e+03, 4.153845999999999549e+03, 4.122051000000000386e+03, 4.172820999999999913e+03, 3.597436000000000149e+03, 1.000000000000000000e+00, 1.000000000000000000e+00, 1.000000000000000000e+02
9.300000000000000000e+01, 3.527692000000000007e+03, 4.151795000000000073e+03, 4.120512999999999920e+03, 4.169230999999999767e+03, 3.581025999999999840e+03, 1.000000000000000000e+00, 0.000000000000000000e+00, 1.000000000000000000e+02
9.400000000000000000e+01, 3.506153999999999996e+03, 4.143590000000000146e+03, 4.124103000000000065e+03, 4.160000000000000000e+03, 3.546153999999999996e+03, 1.000000000000000000e+00, 0.000000000000000000e+00, 1.000000000000000000e+02
9.500000000000000000e+01, 3.488717999999999847e+03, 4.137435999999999694e+03, 4.122564000000000306e+03, 4.154872000000000298e+03, 3.523590000000000146e+03, 1.000000000000000000e+00, 0.000000000000000000e+00, 1.000000000000000000e+02
9.600000000000000000e+01, 3.491795000000000073e+03, 4.139487000000000080e+03, 4.118462000000000444e+03, 4.154872000000000298e+03, 3.514871999999999844e+03, 1.000000000000000000e+00, 0.000000000000000000e+00, 1.000000000000000000e+02
9.700000000000000000e+01, 3.503077000000000226e+03, 4.141537999999999556e+03, 4.124103000000000065e+03, 4.155896999999999935e+03, 3.507692000000000007e+03, 1.000000000000000000e+00, 0.000000000000000000e+00, 1.000000000000000000e+02
9.800000000000000000e+01, 3.500512999999999920e+03, 4.137435999999999694e+03, 4.127692000000000007e+03, 4.154872000000000298e+03, 3.494358999999999924e+03, 1.000000000000000000e+00, 0.000000000000000000e+00, 1.000000000000000000e+02
9.900000000000000000e+01, 3.487692000000000007e+03, 4.141537999999999556e+03, 4.116922999999999774e+03, 4.153332999999999629e+03, 3.472307999999999993e+03, 0.000000000000000000e+00, 0.000000000000000000e+00, 1.000000000000000000e+02
1.000000000000000000e+02, 3.479487000000000080e+03, 4.139487000000000080e+03, 4.107692000000000007e+03, 4.157948999999999614e+03, 3.455896999999999935e+03, 0.000000000000000000e+00, 0.000000000000000000e+00, 1.000000000000000000e+02
1.010000000000000000e+02, 3.475896999999999935e+03, 4.127179000000000087e+03, 4.107179000000000087e+03, 4.160000000000000000e+03, 3.452820999999999913e+03, 0.000000000000000000e+00, 0.000000000000000000e+00, 1.000000000000000000e+02
1.020000000000000000e+02, 3.473846000000000004e+03, 4.123077000000000226e+03, 4.102564000000000306e+03, 4.150769000000000233e+03, 3.445641000000000076e+03, 0.000000000000000000e+00, 0.000000000000000000e+00, 1.000000000000000000e+02
1.030000000000000000e+02, 3.484103000000000065e+03, 4.133332999999999629e+03, 4.109230999999999767e+03, 4.158462000000000444e+03, 3.443077000000000226e+03, 0.000000000000000000e+00, 0.000000000000000000e+00, 1.000000000000000000e+02
1.040000000000000000e+02, 3.504614999999999782e+03, 4.143590000000000146e+03, 4.129230999999999767e+03, 4.176922999999999774e+03, 3.455385000000000218e+03, 0.000000000000000000e+00, 0.000000000000000000e+00, 1.000000000000000000e+02
1.050000000000000000e+02, 3.522050999999999931e+03, 4.139487000000000080e+03, 4.133332999999999629e+03, 4.171282000000000153e+03, 3.455385000000000218e+03, 0.000000000000000000e+00, 0.000000000000000000e+00, 1.000000000000000000e+02
1.060000000000000000e+02, 3.534358999999999924e+03, 4.131282000000000153e+03, 4.123590000000000146e+03, 4.158974000000000160e+03, 3.441025999999999840e+03, 0.000000000000000000e+00, 0.000000000000000000e+00, 1.000000000000000000e+02
1.070000000000000000e+02, 3.547179000000000087e+03, 4.131282000000000153e+03, 4.121025999999999840e+03, 4.165127999999999702e+03, 3.442563999999999851e+03, 0.000000000000000000e+00, 0.000000000000000000e+00, 1.000000000000000000e+02
1.080000000000000000e+02, 3.557436000000000149e+03, 4.137435999999999694e+03, 4.126154000000000451e+03, 4.169743999999999687e+03, 3.456409999999999854e+03, 0.000000000000000000e+00, 0.000000000000000000e+00, 1.000000000000000000e+02
1.090000000000000000e+02, 3.554358999999999924e+03, 4.145640999999999622e+03, 4.123077000000000226e+03, 4.163077000000000226e+03, 3.456922999999999774e+03, 0.000000000000000000e+00, 0.000000000000000000e+00, 1.000000000000000000e+02
1.100000000000000000e+02, 3.541025999999999840e+03, 4.141537999999999556e+03, 4.115385000000000218e+03, 4.157948999999999614e+03, 3.447179000000000087e+03, 0.000000000000000000e+00, 0.000000000000000000e+00, 1.000000000000000000e+02
1.110000000000000000e+02, 3.530768999999999778e+03, 4.143590000000000146e+03, 4.120512999999999920e+03, 4.155385000000000218e+03, 3.442050999999999931e+03, 0.000000000000000000e+00, 0.000000000000000000e+00, 1.000000000000000000e+02
1.120000000000000000e+02, 3.531282000000000153e+03, 4.153845999999999549e+03, 4.128717999999999847e+03, 4.157435999999999694e+03, 3.446666999999999916e+03, 0.000000000000000000e+00, 0.000000000000000000e+00, 1.000000000000000000e+02
1.130000000000000000e+02, 3.528717999999999847e+03, 4.155896999999999935e+03, 4.124614999999999782e+03, 4.166667000000000371e+03, 3.445128000000000156e+03, 0.000000000000000000e+00, 0.000000000000000000e+00, 1.000000000000000000e+02
1.140000000000000000e+02, 3.519487000000000080e+03, 4.151795000000000073e+03, 4.127692000000000007e+03, 4.167179000000000087e+03, 3.435896999999999935e+03, 0.000000000000000000e+00, 0.000000000000000000e+00, 1.000000000000000000e+02
1.150000000000000000e+02, 3.520512999999999920e+03, 4.153845999999999549e+03, 4.142051000000000386e+03, 4.169230999999999767e+03, 3.435385000000000218e+03, 0.000000000000000000e+00, 0.000000000000000000e+00, 1.000000000000000000e+02
1.160000000000000000e+02, 3.515896999999999935e+03, 4.149743999999999687e+03, 4.139487000000000080e+03, 4.168717999999999847e+03, 3.419487000000000080e+03, 0.000000000000000000e+00, 0.000000000000000000e+00, 1.000000000000000000e+02
1.170000000000000000e+02, 3.509231000000000222e+03, 4.133332999999999629e+03, 4.132307999999999993e+03, 4.166154000000000451e+03, 3.403077000000000226e+03, 0.000000000000000000e+00, 0.000000000000000000e+00, 1.000000000000000000e+02
1.180000000000000000e+02, 3.515896999999999935e+03, 4.143590000000000146e+03, 4.140512999999999920e+03, 4.174872000000000298e+03, 3.415896999999999935e+03, 0.000000000000000000e+00, 0.000000000000000000e+00, 1.000000000000000000e+02
1.190000000000000000e+02, 3.516409999999999854e+03, 4.157948999999999614e+03, 4.143077000000000226e+03, 4.178974000000000160e+03, 3.418461999999999989e+03, 0.000000000000000000e+00, 0.000000000000000000e+00, 1.000000000000000000e+02
1.200000000000000000e+02, 3.505128000000000156e+03, 4.147692000000000007e+03, 4.136409999999999854e+03, 4.169743999999999687e+03, 3.401538000000000011e+03, 0.000000000000000000e+00, 0.000000000000000000e+00, 1.000000000000000000e+02
1.210000000000000000e+02, 3.498461999999999989e+03, 4.137435999999999694e+03, 4.137435999999999694e+03, 4.165127999999999702e+03, 3.396409999999999854e+03, 0.000000000000000000e+00, 0.000000000000000000e+00, 1.000000000000000000e+02
1.220000000000000000e+02, 3.489744000000000142e+03, 4.133332999999999629e+03, 4.137435999999999694e+03, 4.169743999999999687e+03, 3.399487000000000080e+03, 0.000000000000000000e+00, 0.000000000000000000e+00, 1.000000000000000000e+02
1.230000000000000000e+02, 3.476922999999999774e+03, 4.127179000000000087e+03, 4.124614999999999782e+03, 4.167179000000000087e+03, 3.395896999999999935e+03, 0.000000000000000000e+00, 0.000000000000000000e+00, 1.000000000000000000e+02
1.240000000000000000e+02, 3.466153999999999996e+03, 4.129230999999999767e+03, 4.115896999999999935e+03, 4.163590000000000146e+03, 3.389231000000000222e+03, 0.000000000000000000e+00, 0.000000000000000000e+00, 1.000000000000000000e+02
1.250000000000000000e+02, 3.452307999999999993e+03, 4.139487000000000080e+03, 4.119487000000000080e+03, 4.166667000000000371e+03, 3.392307999999999993e+03, 0.000000000000000000e+00, 0.000000000000000000e+00, 1.000000000000000000e+02
1.260000000000000000e+02, 3.431282000000000153e+03, 4.135385000000000218e+03, 4.122564000000000306e+03, 4.167179000000000087e+03, 3.398461999999999989e+03, 0.000000000000000000e+00, 0.000000000000000000e+00, 1.000000000000000000e+02
1.270000000000000000e+02, 3.416922999999999774e+03, 4.135385000000000218e+03, 4.126154000000000451e+03, 4.170769000000000233e+03, 3.401538000000000011e+03, 0.000000000000000000e+00, 0.000000000000000000e+00, 1.000000000000000000e+02
0.000000000000000000e+00, 3.412307999999999993e+03, 4.137435999999999694e+03, 4.135385000000000218e+03, 4.173845999999999549e+03, 3.405641000000000076e+03, 0.000000000000000000e+00, 0.000000000000000000e+00, 1.000000000000000000e+02
1.000000000000000000e+00, 3.404103000000000065e+03, 4.127179000000000087e+03, 4.135385000000000218e+03, 4.166154000000000451e+03, 3.405128000000000156e+03, 0.000000000000000000e+00, 0.000000000000000000e+00, 1.000000000000000000e+02
2.000000000000000000e+00, 3.393333000000000084e+03, 4.123077000000000226e+03, 4.136409999999999854e+03, 4.163590000000000146e+03, 3.405128000000000156e+03, 0.000000000000000000e+00, 0.000000000000000000e+00, 1.000000000000000000e+02
3.000000000000000000e+00, 3.384614999999999782e+03, 4.127179000000000087e+03, 4.143077000000000226e+03, 4.169743999999999687e+03, 3.409744000000000142e+03, 0.000000000000000000e+00, 0.000000000000000000e+00, 1.000000000000000000e+02
4.000000000000000000e+00, 3.368717999999999847e+03, 4.118974000000000160e+03, 4.136409999999999854e+03, 4.164614999999999782e+03, 3.402563999999999851e+03, 0.000000000000000000e+00, 0.000000000000000000e+00, 1.000000000000000000e+02
5.000000000000000000e+00, 3.352307999999999993e+03, 4.106667000000000371e+03, 4.122051000000000386e+03, 4.152307999999999993e+03, 3.387179000000000087e+03, 0.000000000000000000e+00, 0.000000000000000000e+00, 1.000000000000000000e+02
6.000000000000000000e+00, 3.347179000000000087e+03, 4.108717999999999847e+03, 4.114872000000000298e+03, 4.153332999999999629e+03, 3.380000000000000000e+03, 0.000000000000000000e+00, 0.000000000000000000e+00, 1.000000000000000000e+02
7.000000000000000000e+00, 3.351282000000000153e+03, 4.110769000000000233e+03, 4.111795000000000073e+03, 4.156922999999999774e+03, 3.382563999999999851e+03, 0.000000000000000000e+00, 0.000000000000000000e+00, 1.000000000000000000e+02
8.000000000000000000e+00, 3.357436000000000149e+03, 4.108717999999999847e+03, 4.116409999999999854e+03, 4.161025999999999840e+03, 3.391282000000000153e+03, 0.000000000000000000e+00, 0.000000000000000000e+00, 1.000000000000000000e+02
9.000000000000000000e+00, 3.363590000000000146e+03, 4.112820999999999913e+03, 4.126667000000000371e+03, 4.171795000000000073e+03, 3.405128000000000156e+03, 0.000000000000000000e+00, 0.000000000000000000e+00, 1.000000000000000000e+02
1.000000000000000000e+01, 3.351282000000000153e+03, 4.110769000000000233e+03, 4.122564000000000306e+03, 4.171282000000000153e+03, 3.397949000000000069e+03, 0.000000000000000000e+00, 0.000000000000000000e+00, 1.000000000000000000e+02
1.100000000000000000e+01, 3.321538000000000011e+03, 4.106667000000000371e+03, 4.118462000000000444e+03, 4.157948999999999614e+03, 3.372820999999999913e+03, 0.000000000000000000e+00, 0.000000000000000000e+00, 1.000000000000000000e+02
1.200000000000000000e+01, 3.315896999999999935e+03, 4.118974000000000160e+03, 4.134359000000000378e+03, 4.163077000000000226e+03, 3.379487000000000080e+03, 0.000000000000000000e+00, 0.000000000000000000e+00, 1.000000000000000000e+02
1.300000000000000000e+01, 3.319487000000000080e+03, 4.118974000000000160e+03, 4.144614999999999782e+03, 4.173845999999999549e+03, 3.397949000000000069e+03, 0.000000000000000000e+00, 0.000000000000000000e+00, 1.000000000000000000e+02
1.400000000000000000e+01, 3.293846000000000004e+03, 4.106667000000000371e+03, 4.138974000000000160e+03, 4.163077000000000226e+03, 3.394871999999999844e+03, 0.000000000000000000e+00, 0.000000000000000000e+00, 1.000000000000000000e+02
1.500000000000000000e+01, 3.266153999999999996e+03, 4.114872000000000298e+03, 4.135896999999999935e+03, 4.154359000000000378e+03, 3.392820999999999913e+03, 0.000000000000000000e+00, 0.000000000000000000e+00, 1.000000000000000000e+02
1.600000000000000000e+01, 3.255896999999999935e+03, 4.116922999999999774e+03, 4.127692000000000007e+03, 4.160000000000000000e+03, 3.386153999999999996e+03, 0.000000000000000000e+00, 0.000000000000000000e+00, 1.000000000000000000e+02
1.700000000000000000e+01, 3.249744000000000142e+03, 4.102564000000000306e+03, 4.112307999999999993e+03, 4.163590000000000146e+03, 3.375896999999999935e+03, 0.000000000000000000e+00, 0.000000000000000000e+00, 1.000000000000000000e+02
1.800000000000000000e+01, 3.250768999999999778e+03, 4.104614999999999782e+03, 4.110769000000000233e+03, 4.162564000000000306e+03, 3.379487000000000080e+03, 0.000000000000000000e+00, 0.000000000000000000e+00, 1.000000000000000000e+02
1.900000000000000000e+01, 3.261538000000000011e+03, 4.112820999999999913e+03, 4.115896999999999935e+03, 4.156922999999999774e+03, 3.382050999999999931e+03, 0.000000000000000000e+00, 0.000000000000000000e+00, 1.000000000000000000e+02
2.000000000000000000e+01, 3.273846000000000004e+03, 4.114872000000000298e+03, 4.116409999999999854e+03, 4.152307999999999993e+03, 3.382050999999999931e+03, 0.000000000000000000e+00, 0.000000000000000000e+00, 1.000000000000000000e+02
2.100000000000000000e+01, 3.278461999999999989e+03, 4.121025999999999840e+03, 4.119487000000000080e+03, 4.152820999999999913e+03, 3.384614999999999782e+03, 0.000000000000000000e+00, 0.000000000000000000e+00, 1.000000000000000000e+02
2.200000000000000000e+01, 3.279487000000000080e+03, 4.121025999999999840e+03, 4.117435999999999694e+03, 4.146154000000000451e+03, 3.377436000000000149e+03, 0.000000000000000000e+00, 0.000000000000000000e+00, 1.000000000000000000e+02
2.300000000000000000e+01, 3.289231000000000222e+03, 4.116922999999999774e+03, 4.107692000000000007e+03, 4.135896999999999935e+03, 3.374871999999999844e+03, 0.000000000000000000e+00, 0.000000000000000000e+00, 1.000000000000000000e+02
2.400000000000000000e+01, 3.305641000000000076e+03, 4.121025999999999840e+03, 4.102051000000000386e+03, 4.134359000000000378e+03, 3.388717999999999847e+03, 0.000000000000000000e+00, 0.000000000000000000e+00, 1.000000000000000000e+02
2.500000000000000000e+01, 3.317949000000000069e+03, 4.123077000000000226e+03, 4.117948999999999614e+03, 4.144614999999999782e+03, 3.404103000000000065e+03, 0.000000000000000000e+00, 0.000000000000000000e+00, 1.000000000000000000e+02
2.600000000000000000e+01, 3.326153999999999996e+03, 4.125127999999999702e+03, 4.138974000000000160e+03, 4.162564000000000306e+03, 3.407692000000000007e+03, 0.000000000000000000e+00, 0.000000000000000000e+00, 1.000000000000000000e+02
2.700000000000000000e+01, 3.335385000000000218e+03, 4.133332999999999629e+03, 4.137948999999999614e+03, 4.174872000000000298e+03, 3.410768999999999778e+03, 0.000000000000000000e+00, 0.000000000000000000e+00, 1.000000000000000000e+02
2.800000000000000000e+01, 3.346153999999999996e+03, 4.137435999999999694e+03, 4.121025999999999840e+03, 4.170769000000000233e+03, 3.419487000000000080e+03, 0.000000000000000000e+00, 0.000000000000000000e+00, 1.000000000000000000e+02
2.900000000000000000e+01, 3.356922999999999774e+03, 4.127179000000000087e+03, 4.117948999999999614e+03, 4.162051000000000386e+03, 3.424614999999999782e+03, 0.000000000000000000e+00, 0.000000000000000000e+00, 1.000000000000000000e+02
3.000000000000000000e+01, 3.372820999999999913e+03, 4.133332999999999629e+03, 4.128717999999999847e+03, 4.165640999999999622e+03, 3.431795000000000073e+03, 0.000000000000000000e+00, 0.000000000000000000e+00, 1.000000000000000000e+02
3.100000000000000000e+01, 3.382050999999999931e+03, 4.141537999999999556e+03, 4.130256000000000313e+03, 4.166154000000000451e+03, 3.434358999999999924e+03, 0.000000000000000000e+00, 0.000000000000000000e+00, 1.000000000000000000e+02
3.200000000000000000e+01, 3.383590000000000146e+03, 4.123077000000000226e+03, 4.126154000000000451e+03, 4.156922999999999774e+03, 3.431795000000000073e+03, 0.000000000000000000e+00, 0.000000000000000000e+00, 1.000000000000000000e+02
3.300000000000000000e+01, 3.395385000000000218e+03, 4.116922999999999774e+03, 4.132307999999999993e+03, 4.157435999999999694e+03, 3.440512999999999920e+03, 0.000000000000000000e+00, 0.000000000000000000e+00, 1.000000000000000000e+02
3.400000000000000000e+01, 3.415385000000000218e+03, 4.141537999999999556e+03, 4.143077000000000226e+03, 4.165640999999999622e+03, 3.451282000000000153e+03, 0.000000000000000000e+00, 0.000000000000000000e+00, 1.000000000000000000e+02
3.500000000000000000e+01, 3.429231000000000222e+03, 4.149743999999999687e+03, 4.138462000000000444e+03, 4.164614999999999782e+03, 3.454358999999999924e+03, 0.000000000000000000e+00, 0.000000000000000000e+00, 1.000000000000000000e+02
3.600000000000000000e+01, 3.433846000000000004e+03, 4.137435999999999694e+03, 4.115385000000000218e+03, 4.153332999999999629e+03, 3.449231000000000222e+03, 0.000000000000000000e+00, 0.000000000000000000e+00, 1.000000000000000000e+02
3.700000000000000000e+01, 3.435385000000000218e+03, 4.133332999999999629e+03, 4.100512999999999920e+03, 4.146667000000000371e+03, 3.445641000000000076e+03, 0.000000000000000000e+00, 0.000000000000000000e+00, 1.000000000000000000e+02
3.800000000000000000e+01, 3.445641000000000076e+03, 4.125127999999999702e+03, 4.103077000000000226e+03, 4.145127999999999702e+03, 3.453333000000000084e+03, 0.000000000000000000e+00, 0.000000000000000000e+00, 1.000000000000000000e+02
3.900000000000000000e+01, 3.473333000000000084e+03, 4.118974000000000160e+03, 4.111282000000000153e+03, 4.151282000000000153e+03, 3.468204999999999927e+03, 0.000000000000000000e+00, 0.000000000000000000e+00, 1.000000000000000000e+02
4.000000000000000000e+01, 3.488204999999999927e+03, 4.125127999999999702e+03, 4.106667000000000371e+03, 4.153845999999999549e+03, 3.472820999999999913e+03, 0.000000000000000000e+00, 0.000000000000000000e+00, 1.000000000000000000e+02
4.100000000000000000e+01, 3.474358999999999924e+03, 4.123077000000000226e+03, 4.093846000000000004e+03, 4.141025999999999840e+03, 3.457949000000000069e+03, 0.000000000000000000e+00, 0.000000000000000000e+00, 1.000000000000000000e+02
4.200000000000000000e+01, 3.472307999999999993e+03, 4.116922999999999774e+03, 4.094871999999999844e+03, 4.135896999999999935e+03, 3.448204999999999927e+03, 0.000000000000000000e+00, 0.000000000000000000e+00, 1.000000000000000000e+02
4.300000000000000000e+01, 3.495385000000000218e+03, 4.131282000000000153e+03, 4.106667000000000371e+03, 4.145640999999999622e+03, 3.452307999999999993e+03, 0.000000000000000000e+00, 0.000000000000000000e+00, 1.000000000000000000e+02
4.400000000000000000e+01, 3.512820999999999913e+03, 4.141537999999999556e+03, 4.107179000000000087e+03, 4.153332999999999629e+03, 3.455896999999999935e+03, 0.000000000000000000e+00, 0.000000000000000000e+00, 1.000000000000000000e+02
4.500000000000000000e+01, 3.522050999999999931e+03, 4.129230999999999767e+03, 4.098462000000000444e+03, 4.153845999999999549e+03, 3.465128000000000156e+03, 0.000000000000000000e+00, 0.000000000000000000e+00, 1.000000000000000000e+02
4.600000000000000000e+01, 3.530255999999999858e+03, 4.114872000000000298e+03, 4.092820999999999913e+03, 4.151795000000000073e+03, 3.474358999999999924e+03, 0.000000000000000000e+00, 0.000000000000000000e+00, 1.000000000000000000e+02
4.700000000000000000e+01, 3.539487000000000080e+03, 4.116922999999999774e+03, 4.095896999999999935e+03, 4.153845999999999549e+03, 3.477949000000000069e+03, 0.000000000000000000e+00, 0.000000000000000000e+00, 1.000000000000000000e+02
4.800000000000000000e+01, 3.554871999999999844e+03, 4.123077000000000226e+03, 4.098462000000000444e+03, 4.151795000000000073e+03, 3.482050999999999931e+03, 0.000000000000000000e+00, 0.000000000000000000e+00, 1.000000000000000000e+02
4.900000000000000000e+01, 3.566153999999999996e+03, 4.121025999999999840e+03, 4.085128000000000156e+03, 4.140512999999999920e+03, 3.476409999999999854e+03, 0.000000000000000000e+00, 0.000000000000000000e+00, 1.000000000000000000e+02
5.000000000000000000e+01, 3.570768999999999778e+03, 4.118974000000000160e+03, 4.069744000000000142e+03, 4.133845999999999549e+03, 3.471795000000000073e+03, 0.000000000000000000e+00, 0.000000000000000000e+00, 1.000000000000000000e+02
5.100000000000000000e+01, 3.587692000000000007e+03, 4.125127999999999702e+03, 4.078461999999999989e+03, 4.146667000000000371e+03, 3.480512999999999920e+03, 0.000000000000000000e+00, 0.000000000000000000e+00, 1.000000000000000000e+02
5.200000000000000000e+01, 3.609231000000000222e+03, 4.135385000000000218e+03, 4.095896999999999935e+03, 4.153332999999999629e+03, 3.492820999999999913e+03, 0.000000000000000000e+00, 0.000000000000000000e+00, 1.000000000000000000e+02
5.300000000000000000e+01, 3.625128000000000156e+03, 4.137435999999999694e+03, 4.099487000000000080e+03, 4.138974000000000160e+03, 3.505641000000000076e+03, 0.000000000000000000e+00, 0.000000000000000000e+00, 1.000000000000000000e+02
5.400000000000000000e+01, 3.633846000000000004e+03, 4.135385000000000218e+03, 4.097435999999999694e+03, 4.134359000000000378e+03, 3.516409999999999854e+03, 0.000000000000000000e+00, 0.000000000000000000e+00, 1.000000000000000000e+02
5.500000000000000000e+01, 3.642050999999999931e+03, 4.135385000000000218e+03, 4.101537999999999556e+03, 4.153845999999999549e+03, 3.523077000000000226e+03, 0.000000000000000000e+00, 0.000000000000000000e+00, 1.000000000000000000e+02
5.600000000000000000e+01, 3.655896999999999935e+03, 4.139487000000000080e+03, 4.112820999999999913e+03, 4.172820999999999913e+03, 3.529231000000000222e+03, 0.000000000000000000e+00, 0.000000000000000000e+00, 1.000000000000000000e+02
5.700000000000000000e+01, 3.669231000000000222e+03, 4.139487000000000080e+03, 4.120000000000000000e+03, 4.173332999999999629e+03, 3.534871999999999844e+03, 0.000000000000000000e+00, 0.000000000000000000e+00, 1.000000000000000000e+02
5.800000000000000000e+01, 3.680000000000000000e+03, 4.131282000000000153e+03, 4.116409999999999854e+03, 4.165640999999999622e+03, 3.541538000000000011e+03, 0.000000000000000000e+00, 0.000000000000000000e+00, 1.000000000000000000e+02
5.900000000000000000e+01, 3.683590000000000146e+03, 4.123077000000000226e+03, 4.107179000000000087e+03, 4.156409999999999854e+03, 3.535385000000000218e+03, 0.000000000000000000e+00, 0.000000000000000000e+00, 1.000000000000000000e+02
6.000000000000000000e+01, 3.683077000000000226e+03, 4.125127999999999702e+03, 4.105640999999999622e+03, 4.150769000000000233e+03, 3.531282000000000153e+03, 0.000000000000000000e+00, 0.000000000000000000e+00, 1.000000000000000000e+02
6.100000000000000000e+01, 3.696922999999999774e+03, 4.131282000000000153e+03, 4.111282000000000153e+03, 4.153845999999999549e+03, 3.546153999999999996e+03, 0.000000000000000000e+00, 0.000000000000000000e+00, 1.000000000000000000e+02
6.200000000000000000e+01, 3.712307999999999993e+03, 4.129230999999999767e+03, 4.103590000000000146e+03, 4.142564000000000306e+03, 3.548204999999999927e+03, 0.000000000000000000e+00, 0.000000000000000000e+00, 1.000000000000000000e+02
6.300000000000000000e+01, 3.714871999999999844e+03, 4.121025999999999840e+03, 4.085641000000000076e+03, 4.116922999999999774e+03, 3.531282000000000153e+03, 0.000000000000000000e+00, 0.000000000000000000e+00, 1.000000000000000000e+02
6.400000000000000000e+01, 3.720512999999999920e+03, 4.118974000000000160e+03, 4.080512999999999920e+03, 4.111282000000000153e+03, 3.530768999999999778e+03, 0.000000000000000000e+00, 0.000000000000000000e+00, 1.000000000000000000e+02
6.500000000000000000e+01, 3.743590000000000146e+03, 4.129230999999999767e+03, 4.094871999999999844e+03, 4.120512999999999920e+03, 3.553333000000000084e+03, 0.000000000000000000e+00, 0.000000000000000000e+00, 1.000000000000000000e+02
6.600000000000000000e+01, 3.764103000000000065e+03, 4.135385000000000218e+03, 4.107179000000000087e+03, 4.120000000000000000e+03, 3.572820999999999913e+03, 0.000000000000000000e+00, 0.000000000000000000e+00, 1.000000000000000000e+02
6.700000000000000000e+01, 3.773333000000000084e+03, 4.135385000000000218e+03, 4.105640999999999622e+03, 4.123590000000000146e+03, 3.577436000000000149e+03, 0.000000000000000000e+00, 0.000000000000000000e+00, 1.000000000000000000e+02
6.800000000000000000e+01, 3.785641000000000076e+03, 4.143590000000000146e+03, 4.100000000000000000e+03, 4.141537999999999556e+03, 3.584614999999999782e+03, 0.000000000000000000e+00, 0.000000000000000000e+00, 1.000000000000000000e+02
6.900000000000000000e+01, 3.799487000000000080e+03, 4.143590000000000146e+03, 4.098462000000000444e+03, 4.156922999999999774e+03, 3.597949000000000069e+03, 0.000000000000000000e+00, 0.000000000000000000e+00, 1.000000000000000000e+02
7.000000000000000000e+01, 3.814358999999999924e+03, 4.135385000000000218e+03, 4.106154000000000451e+03, 4.168717999999999847e+03, 3.612307999999999993e+03, 0.000000000000000000e+00, 0.000000000000000000e+00, 1.000000000000000000e+02
7.100000000000000000e+01, 3.829744000000000142e+03, 4.145640999999999622e+03, 4.110769000000000233e+03, 4.178974000000000160e+03, 3.618974000000000160e+03, 0.000000000000000000e+00, 0.000000000000000000e+00, 1.000000000000000000e+02
7.200000000000000000e+01, 3.829744000000000142e+03, 4.153845999999999549e+03, 4.106154000000000451e+03, 4.168204999999999927e+03, 3.611795000000000073e+03, 0.000000000000000000e+00, 0.000000000000000000e+00, 1.000000000000000000e+02
7.300000000000000000e+01, 3.829744000000000142e+03, 4.137435999999999694e+03, 4.102051000000000386e+03, 4.151795000000000073e+03, 3.608204999999999927e+03, 0.000000000000000000e+00, 0.000000000000000000e+00, 1.000000000000000000e+02
7.400000000000000000e+01, 3.848204999999999927e+03, 4.135385000000000218e+03, 4.097435999999999694e+03, 4.155385000000000218e+03, 3.614358999999999924e+03, 0.000000000000000000e+00, 0.000000000000000000e+00, 1.000000000000000000e+02
7.500000000000000000e+01, 3.871282000000000153e+03, 4.153845999999999549e+03, 4.089744000000000142e+03, 4.158462000000000444e+03, 3.623077000000000226e+03, 0.000000000000000000e+00, 0.000000000000000000e+00, 1.000000000000000000e+02
7.600000000000000000e+01, 3.890768999999999778e+03, 4.157948999999999614e+03, 4.095896999999999935e+03, 4.145640999999999622e+03, 3.639487000000000080e+03, 0.000000000000000000e+00, 0.000000000000000000e+00, 1.000000000000000000e+02
7.700000000000000000e+01, 3.900000000000000000e+03, 4.149743999999999687e+03, 4.103077000000000226e+03, 4.133845999999999549e+03, 3.643077000000000226e+03, 0.000000000000000000e+00, 0.000000000000000000e+00, 1.000000000000000000e+02
7.800000000000000000e+01, 3.902563999999999851e+03, 4.149743999999999687e+03, 4.091795000000000073e+03, 4.135385000000000218e+03, 3.638461999999999989e+03, 0.000000000000000000e+00, 0.000000000000000000e+00, 1.000000000000000000e+02
7.900000000000000000e+01, 3.916409999999999854e+03, 4.153845999999999549e+03, 4.090768999999999778e+03, 4.135385000000000218e+03, 3.656922999999999774e+03, 0.000000000000000000e+00, 0.000000000000000000e+00, 1.000000000000000000e+02
8.000000000000000000e+01, 3.936922999999999774e+03, 4.155896999999999935e+03, 4.106154000000000451e+03, 4.136922999999999774e+03, 3.683077000000000226e+03, 0.000000000000000000e+00, 0.000000000000000000e+00, 1.000000000000000000e+02
8.100000000000000000e+01, 3.940000000000000000e+03, 4.153845999999999549e+03, 4.101025999999999840e+03, 4.143077000000000226e+03, 3.682563999999999851e+03, 0.000000000000000000e+00, 0.000000000000000000e+00, 1.000000000000000000e+02
8.200000000000000000e+01, 3.937949000000000069e+03, 4.149743999999999687e+03, 4.085128000000000156e+03, 4.139487000000000080e+03, 3.675385000000000218e+03, 0.000000000000000000e+00, 0.000000000000000000e+00, 1.000000000000000000e+02
8.300000000000000000e+01, 3.953846000000000004e+03, 4.151795000000000073e+03, 4.093333000000000084e+03, 4.136409999999999854e+03, 3.692820999999999913e+03, 0.000000000000000000e+00, 0.000000000000000000e+00, 1.000000000000000000e+02
8.400000000000000000e+01, 3.973846000000000004e+03, 4.153845999999999549e+03, 4.108204999999999927e+03, 4.152820999999999913e+03, 3.716409999999999854e+03, 0.000000000000000000e+00, 0.000000000000000000e+00, 1.000000000000000000e+02
8.500000000000000000e+01, 3.995385000000000218e+03, 4.151795000000000073e+03, 4.109743999999999687e+03, 4.171795000000000073e+03, 3.740512999999999920e+03, 0.000000000000000000e+00, 0.000000000000000000e+00, 1.000000000000000000e+02
8.600000000000000000e+01, 4.018974000000000160e+03, 4.151795000000000073e+03, 4.106154000000000451e+03, 4.175385000000000218e+03, 3.760512999999999920e+03, 0.000000000000000000e+00, 0.000000000000000000e+00, 1.000000000000000000e+02
8.700000000000000000e+01, 4.021538000000000011e+03, 4.153845999999999549e+03, 4.103077000000000226e+03, 4.165640999999999622e+03, 3.760000000000000000e+03, 0.000000000000000000e+00, 0.000000000000000000e+00, 1.000000000000000000e+02
8.800000000000000000e+01, 4.021025999999999840e+03, 4.151795000000000073e+03, 4.106154000000000451e+03, 4.157948999999999614e+03, 3.768717999999999847e+03, 0.000000000000000000e+00, 0.000000000000000000e+00, 1.000000000000000000e+02
8.900000000000000000e+01, 4.030768999999999778e+03, 4.151795000000000073e+03, 4.107692000000000007e+03, 4.161025999999999840e+03, 3.780000000000000000e+03, 0.000000000000000000e+00, 0.000000000000000000e+00, 1.000000000000000000e+02
9.000000000000000000e+01, 4.034871999999999844e+03, 4.160000000000000000e+03, 4.102564000000000306e+03, 4.168717999999999847e+03, 3.771282000000000153e+03, 0.000000000000000000e+00, 0.000000000000000000e+00, 1.000000000000000000e+02
9.100000000000000000e+01, 4.042563999999999851e+03, 4.168204999999999927e+03, 4.107692000000000007e+03, 4.174872000000000298e+03, 3.775896999999999935e+03, 0.000000000000000000e+00, 0.000000000000000000e+00, 1.000000000000000000e+02
9.200000000000000000e+01, 4.056409999999999854e+03, 4.166154000000000451e+03, 4.121025999999999840e+03, 4.168717999999999847e+03, 3.794358999999999924e+03, 0.000000000000000000e+00, 0.000000000000000000e+00, 1.000000000000000000e+02
9.300000000000000000e+01, 4.066153999999999996e+03, 4.166154000000000451e+03, 4.120000000000000000e+03, 4.157435999999999694e+03, 3.798461999999999989e+03, 0.000000000000000000e+00, 0.000000000000000000e+00, 1.000000000000000000e+02
9.400000000000000000e+01, 4.075896999999999935e+03, 4.174359000000000378e+03, 4.114872000000000298e+03, 4.164614999999999782e+03, 3.803590000000000146e+03, 0.000000000000000000e+00, 0.000000000000000000e+00, 1.000000000000000000e+02
9.500000000000000000e+01, 4.086153999999999996e+03, 4.174359000000000378e+03, 4.118462000000000444e+03, 4.170256000000000313e+03, 3.822563999999999851e+03, 0.000000000000000000e+00, 0.000000000000000000e+00, 1.000000000000000000e+02
9.600000000000000000e+01, 4.097435999999999694e+03, 4.174359000000000378e+03, 4.122051000000000386e+03, 4.158462000000000444e+03, 3.841538000000000011e+03, 0.000000000000000000e+00, 0.000000000000000000e+00, 1.000000000000000000e+02
9.700000000000000000e+01, 4.113845999999999549e+03, 4.180512999999999920e+03, 4.117435999999999694e+03, 4.153332999999999629e+03, 3.849231000000000222e+03, 0.000000000000000000e+00, 0.000000000000000000e+00, 1.000000000000000000e+02
9.800000000000000000e+01, 4.133845999999999549e+03, 4.182564000000000306e+03, 4.111795000000000073e+03, 4.160000000000000000e+03, 3.864103000000000065e+03, 0.000000000000000000e+00, 0.000000000000000000e+00, 1.000000000000000000e+02
9.900000000000000000e+01, 4.146154000000000451e+03, 4.186667000000000371e+03, 4.111282000000000153e+03, 4.154359000000000378e+03, 3.885128000000000156e+03, 0.000000000000000000e+00, 0.000000000000000000e+00, 1.000000000000000000e+02
1.000000000000000000e+02, 4.152307999999999993e+03, 4.198974000000000160e+03, 4.119487000000000080e+03, 4.142564000000000306e+03, 3.886153999999999996e+03, 0.000000000000000000e+00, 0.000000000000000000e+00, 1.000000000000000000e+02
1.010000000000000000e+02, 4.158462000000000444e+03, 4.209230999999999767e+03, 4.129230999999999767e+03, 4.151795000000000073e+03, 3.886666999999999916e+03, 0.000000000000000000e+00, 0.000000000000000000e+00, 1.000000000000000000e+02
1.020000000000000000e+02, 4.164103000000000065e+03, 4.198974000000000160e+03, 4.126154000000000451e+03, 4.163077000000000226e+03, 3.903077000000000226e+03, 0.000000000000000000e+00, 0.000000000000000000e+00, 1.000000000000000000e+02
1.030000000000000000e+02, 4.168717999999999847e+03, 4.188717999999999847e+03, 4.118974000000000160e+03, 4.157435999999999694e+03, 3.914871999999999844e+03, 0.000000000000000000e+00, 0.000000000000000000e+00, 1.000000000000000000e+02
1.040000000000000000e+02, 4.174872000000000298e+03, 4.184614999999999782e+03, 4.118974000000000160e+03, 4.160000000000000000e+03, 3.917949000000000069e+03, 0.000000000000000000e+00, 0.000000000000000000e+00, 1.000000000000000000e+02
1.050000000000000000e+02, 4.182051000000000386e+03, 4.184614999999999782e+03, 4.127692000000000007e+03, 4.180000000000000000e+03, 3.929231000000000222e+03, 0.000000000000000000e+00, 0.000000000000000000e+00, 1.000000000000000000e+02
1.060000000000000000e+02, 4.178974000000000160e+03, 4.190769000000000233e+03, 4.130769000000000233e+03, 4.180000000000000000e+03, 3.936922999999999774e+03, 0.000000000000000000e+00, 0.000000000000000000e+00, 1.000000000000000000e+02
1.070000000000000000e+02, 4.167179000000000087e+03, 4.186667000000000371e+03, 4.111282000000000153e+03, 4.158462000000000444e+03, 3.921025999999999840e+03, 0.000000000000000000e+00, 0.000000000000000000e+00, 1.000000000000000000e+02
1.080000000000000000e+02, 4.170769000000000233e+03, 4.182564000000000306e+03, 4.100512999999999920e+03, 4.161537999999999556e+03, 3.916922999999999774e+03, 0.000000000000000000e+00, 0.000000000000000000e+00, 1.000000000000000000e+02
1.090000000000000000e+02, 4.190256000000000313e+03, 4.192820999999999913e+03, 4.116922999999999774e+03, 4.176409999999999854e+03, 3.940512999999999920e+03, 0.000000000000000000e+00, 0.000000000000000000e+00, 1.000000000000000000e+02
1.100000000000000000e+02, 4.193332999999999629e+03, 4.194872000000000298e+03, 4.114359000000000378e+03, 4.166667000000000371e+03, 3.950768999999999778e+03, 0.000000000000000000e+00, 0.000000000000000000e+00, 1.000000000000000000e+02
1.110000000000000000e+02, 4.189230999999999767e+03, 4.180512999999999920e+03, 4.084103000000000065e+03, 4.152307999999999993e+03, 3.942563999999999851e+03, 0.000000000000000000e+00, 0.000000000000000000e+00, 1.000000000000000000e+02
1.120000000000000000e+02, 4.200000000000000000e+03, 4.184614999999999782e+03, 4.077949000000000069e+03, 4.153332999999999629e+03, 3.946153999999999996e+03, 0.000000000000000000e+00, 0.000000000000000000e+00, 1.000000000000000000e+02
1.130000000000000000e+02, 4.217948999999999614e+03, 4.203077000000000226e+03, 4.095385000000000218e+03, 4.162051000000000386e+03, 3.968204999999999927e+03, 0.000000000000000000e+00, 0.000000000000000000e+00, 1.000000000000000000e+02
1.140000000000000000e+02, 4.230769000000000233e+03, 4.203077000000000226e+03, 4.114359000000000378e+03, 4.169743999999999687e+03, 3.987179000000000087e+03, 0.000000000000000000e+00, 0.000000000000000000e+00, 1.000000000000000000e+02
1.150000000000000000e+02, 4.235385000000000218e+03, 4.198974000000000160e+03, 4.130256000000000313e+03, 4.178462000000000444e+03, 3.991795000000000073e+03, 0.000000000000000000e+00, 0.000000000000000000e+00, 1.000000000000000000e+02
1.160000000000000000e+02, 4.237948999999999614e+03, 4.198974000000000160e+03, 4.130769000000000233e+03, 4.180512999999999920e+03, 3.993333000000000084e+03, 0.000000000000000000e+00, 0.000000000000000000e+00, 1.000000000000000000e+02
1.170000000000000000e+02, 4.250256000000000313e+03, 4.198974000000000160e+03, 4.129230999999999767e+03, 4.177948999999999614e+03, 4.008204999999999927e+03, 0.000000000000000000e+00, 0.000000000000000000e+00, 1.000000000000000000e+02
1.180000000000000000e+02, 4.274359000000000378e+03, 4.203077000000000226e+03, 4.145127999999999702e+03, 4.187692000000000007e+03, 4.037436000000000149e+03, 0.000000000000000000e+00, 0.000000000000000000e+00, 1.000000000000000000e+02
1.190000000000000000e+02, 4.291795000000000073e+03, 4.209230999999999767e+03, 4.143590000000000146e+03, 4.192307999999999993e+03, 4.062563999999999851e+03, 0.000000000000000000e+00, 0.000000000000000000e+00, 1.000000000000000000e+02
1.200000000000000000e+02, 4.296409999999999854e+03, 4.209230999999999767e+03, 4.122564000000000306e+03, 4.177948999999999614e+03, 4.068717999999999847e+03, 0.000000000000000000e+00, 0.000000000000000000e+00, 1.000000000000000000e+02
1.210000000000000000e+02, 4.301537999999999556e+03, 4.196922999999999774e+03, 4.112307999999999993e+03, 4.173845999999999549e+03, 4.068204999999999927e+03, 0.000000000000000000e+00, 0.000000000000000000e+00, 1.000000000000000000e+02
1.220000000000000000e+02, 4.311795000000000073e+03, 4.188717999999999847e+03, 4.107692000000000007e+03, 4.180000000000000000e+03, 4.076922999999999774e+03, 0.000000000000000000e+00, 0.000000000000000000e+00, 1.000000000000000000e+02
1.230000000000000000e+02, 4.321537999999999556e+03, 4.194872000000000298e+03, 4.109230999999999767e+03, 4.173845999999999549e+03, 4.088717999999999847e+03, 0.000000000000000000e+00, 0.000000000000000000e+00, 1.000000000000000000e+02
1.240000000000000000e+02, 4.327179000000000087e+03, 4.198974000000000160e+03, 4.120512999999999920e+03, 4.167692000000000007e+03, 4.094871999999999844e+03, 0.000000000000000000e+00, 0.000000000000000000e+00, 1.000000000000000000e+02
1.250000000000000000e+02, 4.329230999999999767e+03, 4.194872000000000298e+03, 4.122051000000000386e+03, 4.165640999999999622e+03, 4.096922999999999774e+03, 0.000000000000000000e+00, 0.000000000000000000e+00, 1.000000000000000000e+02
1.260000000000000000e+02, 4.333332999999999629e+03, 4.198974000000000160e+03, 4.120000000000000000e+03, 4.165640999999999622e+03, 4.106154000000000451e+03, 0.000000000000000000e+00, 0.000000000000000000e+00, 1.000000000000000000e+02
1.270000000000000000e+02, 4.340000000000000000e+03, 4.203077000000000226e+03, 4.126154000000000451e+03, 4.180000000000000000e+03, 4.115896999999999935e+03, 0.000000000000000000e+00, 0.000000000000000000e+00, 1.000000000000000000e+02
0.000000000000000000e+00, 4.346154000000000451e+03, 4.201025999999999840e+03, 4.124103000000000065e+03, 4.186667000000000371e+03, 4.118974000000000160e+03, 0.000000000000000000e+00, 0.000000000000000000e+00, 1.000000000000000000e+02
1.000000000000000000e+00, 4.356922999999999774e+03, 4.209230999999999767e+03, 4.120000000000000000e+03, 4.175385000000000218e+03, 4.129743999999999687e+03, 0.000000000000000000e+00, 0.000000000000000000e+00, 1.000000000000000000e+02
2.000000000000000000e+00, 4.370769000000000233e+03, 4.209230999999999767e+03, 4.124614999999999782e+03, 4.173845999999999549e+03, 4.142564000000000306e+03, 0.000000000000000000e+00, 0.000000000000000000e+00, 1.000000000000000000e+02
3.000000000000000000e+00, 4.385127999999999702e+03, 4.201025999999999840e+03, 4.126154000000000451e+03, 4.189230999999999767e+03, 4.156409999999999854e+03, 0.000000000000000000e+00, 0.000000000000000000e+00, 1.000000000000000000e+02
4.000000000000000000e+00, 4.397948999999999614e+03, 4.198974000000000160e+03, 4.121537999999999556e+03, 4.196409999999999854e+03, 4.172820999999999913e+03, 0.000000000000000000e+00, 0.000000000000000000e+00, 1.000000000000000000e+02
5.000000000000000000e+00, 4.405127999999999702e+03, 4.205127999999999702e+03, 4.120512999999999920e+03, 4.189230999999999767e+03, 4.183077000000000226e+03, 0.000000000000000000e+00, 0.000000000000000000e+00, 1.000000000000000000e+02
6.000000000000000000e+00, 4.420512999999999920e+03, 4.205127999999999702e+03, 4.121025999999999840e+03, 4.177435999999999694e+03, 4.190769000000000233e+03, 0.000000000000000000e+00, 0.000000000000000000e+00, 1.000000000000000000e+02
7.000000000000000000e+00, 4.425127999999999702e+03, 4.194872000000000298e+03, 4.104103000000000065e+03, 4.164103000000000065e+03, 4.188204999999999927e+03, 0.000000000000000000e+00, 0.000000000000000000e+00, 1.000000000000000000e+02
8.000000000000000000e+00, 4.415896999999999935e+03, 4.190769000000000233e+03, 4.082050999999999931e+03, 4.151282000000000153e+03, 4.184614999999999782e+03, 0.000000000000000000e+00, 0.000000000000000000e+00, 1.000000000000000000e+02
9.000000000000000000e+00, 4.425127999999999702e+03, 4.198974000000000160e+03, 4.094358999999999924e+03, 4.149743999999999687e+03, 4.195385000000000218e+03, 0.000000000000000000e+00, 0.000000000000000000e+00, 1.000000000000000000e+02
1.000000000000000000e+01, 4.440000000000000000e+03, 4.201025999999999840e+03, 4.117948999999999614e+03, 4.154872000000000298e+03, 4.207692000000000007e+03, 0.000000000000000000e+00, 0.000000000000000000e+00, 1.000000000000000000e+02
1.100000000000000000e+01, 4.441537999999999556e+03, 4.201025999999999840e+03, 4.113845999999999549e+03, 4.160000000000000000e+03, 4.213845999999999549e+03, 0.000000000000000000e+00, 0.000000000000000000e+00, 1.000000000000000000e+02
1.200000000000000000e+01, 4.435896999999999935e+03, 4.209230999999999767e+03, 4.097948999999999614e+03, 4.154872000000000298e+03, 4.210256000000000313e+03, 0.000000000000000000e+00, 0.000000000000000000e+00, 1.000000000000000000e+02
1.300000000000000000e+01, 4.433845999999999549e+03, 4.205127999999999702e+03, 4.093333000000000084e+03, 4.158462000000000444e+03, 4.210769000000000233e+03, 0.000000000000000000e+00, 0.000000000000000000e+00, 1.000000000000000000e+02
1.400000000000000000e+01, 4.430256000000000313e+03, 4.196922999999999774e+03, 4.094358999999999924e+03, 4.176409999999999854e+03, 4.226154000000000451e+03, 0.000000000000000000e+00, 0.000000000000000000e+00, 1.000000000000000000e+02
1.500000000000000000e+01, 4.440512999999999920e+03, 4.201025999999999840e+03, 4.100000000000000000e+03, 4.186154000000000451e+03, 4.243077000000000226e+03, 0.000000000000000000e+00, 0.000000000000000000e+00, 1.000000000000000000e+02
1.600000000000000000e+01, 4.463077000000000226e+03, 4.207179000000000087e+03, 4.108204999999999927e+03, 4.182051000000000386e+03, 4.257948999999999614e+03, 0.000000000000000000e+00, 0.000000000000000000e+00, 1.000000000000000000e+02
1.700000000000000000e+01, 4.465640999999999622e+03, 4.196922999999999774e+03, 4.096922999999999774e+03, 4.173845999999999549e+03, 4.264103000000000065e+03, 0.000000000000000000e+00, 0.000000000000000000e+00, 1.000000000000000000e+02
1.800000000000000000e+01, 4.456922999999999774e+03, 4.188717999999999847e+03, 4.076409999999999854e+03, 4.166154000000000451e+03, 4.263590000000000146e+03, 0.000000000000000000e+00, 0.000000000000000000e+00, 1.000000000000000000e+02
1.900000000000000000e+01, 4.465640999999999622e+03, 4.190769000000000233e+03, 4.076409999999999854e+03, 4.159487000000000080e+03, 4.270769000000000233e+03, 0.000000000000000000e+00, 0.000000000000000000e+00, 1.000000000000000000e+02
2.000000000000000000e+01, 4.479487000000000080e+03, 4.194872000000000298e+03, 4.086666999999999916e+03, 4.149743999999999687e+03, 4.279487000000000080e+03, 0.000000000000000000e+00, 0.000000000000000000e+00, 1.000000000000000000e+02
2.100000000000000000e+01, 4.478974000000000160e+03, 4.192820999999999913e+03, 4.088717999999999847e+03, 4.140512999999999920e+03, 4.284614999999999782e+03, 0.000000000000000000e+00, 0.000000000000000000e+00, 1.000000000000000000e+02
2.200000000000000000e+01, 4.480512999999999920e+03, 4.192820999999999913e+03, 4.095385000000000218e+03, 4.142051000000000386e+03, 4.292820999999999913e+03, 0.000000000000000000e+00, 0.000000000000000000e+00, 1.000000000000000000e+02
2.300000000000000000e+01, 4.489743999999999687e+03, 4.194872000000000298e+03, 4.107179000000000087e+03, 4.147179000000000087e+03, 4.300512999999999920e+03, 0.000000000000000000e+00, 0.000000000000000000e+00, 1.000000000000000000e+02
2.400000000000000000e+01, 4.487692000000000007e+03, 4.194872000000000298e+03, 4.112307999999999993e+03, 4.141537999999999556e+03, 4.303590000000000146e+03, 0.000000000000000000e+00, 0.000000000000000000e+00, 1.000000000000000000e+02
2.500000000000000000e+01, 4.484614999999999782e+03, 4.196922999999999774e+03, 4.116922999999999774e+03, 4.145127999999999702e+03, 4.310769000000000233e+03, 0.000000000000000000e+00, 0.000000000000000000e+00, 1.000000000000000000e+02
2.600000000000000000e+01, 4.496409999999999854e+03, 4.198974000000000160e+03, 4.126667000000000371e+03, 4.163077000000000226e+03, 4.327179000000000087e+03, 0.000000000000000000e+00, 0.000000000000000000e+00, 1.000000000000000000e+02
2.700000000000000000e+01, 4.506154000000000451e+03, 4.201025999999999840e+03, 4.126154000000000451e+03, 4.172307999999999993e+03, 4.336409999999999854e+03, 0.000000000000000000e+00, 0.000000000000000000e+00, 1.000000000000000000e+02
2.800000000000000000e+01, 4.506667000000000371e+03, 4.203077000000000226e+03, 4.116409999999999854e+03, 4.172820999999999913e+03, 4.341537999999999556e+03, 0.000000000000000000e+00, 0.000000000000000000e+00, 1.000000000000000000e+02
2.900000000000000000e+01, 4.514872000000000298e+03, 4.203077000000000226e+03, 4.109743999999999687e+03, 4.171282000000000153e+03, 4.352820999999999913e+03, 0.000000000000000000e+00, 0.000000000000000000e+00, 1.000000000000000000e+02
3.000000000000000000e+01, 4.528204999999999927e+03, 4.209230999999999767e+03, 4.104103000000000065e+03, 4.169230999999999767e+03, 4.361537999999999556e+03, 0.000000000000000000e+00, 0.000000000000000000e+00, 1.000000000000000000e+02
3.100000000000000000e+01, 4.541025999999999840e+03, 4.213332999999999629e+03, 4.097948999999999614e+03, 4.172820999999999913e+03, 4.374872000000000298e+03, 0.000000000000000000e+00, 0.000000000000000000e+00, 1.000000000000000000e+02
3.200000000000000000e+01, 4.548204999999999927e+03, 4.205127999999999702e+03, 4.092820999999999913e+03, 4.167692000000000007e+03, 4.382564000000000306e+03, 0.000000000000000000e+00, 0.000000000000000000e+00, 1.000000000000000000e+02
3.300000000000000000e+01, 4.548717999999999847e+03, 4.201025999999999840e+03, 4.089744000000000142e+03, 4.153845999999999549e+03, 4.375385000000000218e+03, 0.000000000000000000e+00, 0.000000000000000000e+00, 1.000000000000000000e+02
3.400000000000000000e+01, 4.551282000000000153e+03, 4.201025999999999840e+03, 4.097435999999999694e+03, 4.148717999999999847e+03, 4.377948999999999614e+03, 0.000000000000000000e+00, 0.000000000000000000e+00, 1.000000000000000000e+02
3.500000000000000000e+01, 4.553332999999999629e+03, 4.201025999999999840e+03, 4.116922999999999774e+03, 4.150769000000000233e+03, 4.394872000000000298e+03, 0.000000000000000000e+00, 0.000000000000000000e+00, 1.000000000000000000e+02
3.600000000000000000e+01, 4.553332999999999629e+03, 4.207179000000000087e+03, 4.127692000000000007e+03, 4.153332999999999629e+03, 4.415385000000000218e+03, 0.000000000000000000e+00, 0.000000000000000000e+00, 1.000000000000000000e+02
3.700000000000000000e+01, 4.566154000000000451e+03, 4.211282000000000153e+03, 4.117948999999999614e+03, 4.158974000000000160e+03, 4.437435999999999694e+03, 0.000000000000000000e+00, 0.000000000000000000e+00, 1.000000000000000000e+02
3.800000000000000000e+01, 4.581537999999999556e+03, 4.207179000000000087e+03, 4.106667000000000371e+03, 4.156409999999999854e+03, 4.452820999999999913e+03, 0.000000000000000000e+00, 0.000000000000000000e+00, 1.000000000000000000e+02
3.900000000000000000e+01, 4.584614999999999782e+03, 4.211282000000000153e+03, 4.104614999999999782e+03, 4.150256000000000313e+03, 4.456409999999999854e+03, 0.000000000000000000e+00, 0.000000000000000000e+00, 1.000000000000000000e+02
4.000000000000000000e+01, 4.584614999999999782e+03, 4.213332999999999629e+03, 4.105127999999999702e+03, 4.161025999999999840e+03, 4.459487000000000080e+03, 0.000000000000000000e+00, 0.000000000000000000e+00, 1.000000000000000000e+02
4.100000000000000000e+01, 4.582051000000000386e+03, 4.201025999999999840e+03, 4.104614999999999782e+03, 4.174872000000000298e+03, 4.465127999999999702e+03, 0.000000000000000000e+00, 0.000000000000000000e+00, 1.000000000000000000e+02
4.200000000000000000e+01, 4.570256000000000313e+03, 4.194872000000000298e+03, 4.106154000000000451e+03, 4.174872000000000298e+03, 4.462564000000000306e+03, 0.000000000000000000e+00, 0.000000000000000000e+00, 1.000000000000000000e+02
4.300000000000000000e+01, 4.564103000000000065e+03, 4.201025999999999840e+03, 4.103590000000000146e+03, 4.167179000000000087e+03, 4.457948999999999614e+03, 0.000000000000000000e+00, 0.000000000000000000e+00, 1.000000000000000000e+02
4.400000000000000000e+01, 4.560512999999999920e+03, 4.194872000000000298e+03, 4.096922999999999774e+03, 4.156922999999999774e+03, 4.451282000000000153e+03, 0.000000000000000000e+00, 0.000000000000000000e+00, 1.000000000000000000e+02
4.500000000000000000e+01, 4.549230999999999767e+03, 4.186667000000000371e+03, 4.098462000000000444e+03, 4.156922999999999774e+03, 4.445640999999999622e+03, 0.000000000000000000e+00, 0.000000000000000000e+00, 1.000000000000000000e+02
4.600000000000000000e+01, 4.554359000000000378e+03, 4.201025999999999840e+03, 4.109743999999999687e+03, 4.168204999999999927e+03, 4.457948999999999614e+03, 0.000000000000000000e+00, 0.000000000000000000e+00, 1.000000000000000000e+02
4.700000000000000000e+01, 4.572307999999999993e+03, 4.219487000000000080e+03, 4.115385000000000218e+03, 4.171795000000000073e+03, 4.470769000000000233e+03, 0.000000000000000000e+00, 0.000000000000000000e+00, 1.000000000000000000e+02
4.800000000000000000e+01, 4.565640999999999622e+03, 4.219487000000000080e+03, 4.112820999999999913e+03, 4.162051000000000386e+03, 4.466154000000000451e+03, 0.000000000000000000e+00, 0.000000000000000000e+00, 1.000000000000000000e+02
4.900000000000000000e+01, 4.552820999999999913e+03, 4.215385000000000218e+03, 4.112307999999999993e+03, 4.158462000000000444e+03, 4.470256000000000313e+03, 0.000000000000000000e+00, 0.000000000000000000e+00, 1.000000000000000000e+02
5.000000000000000000e+01, 4.561537999999999556e+03, 4.221537999999999556e+03, 4.107692000000000007e+03, 4.161025999999999840e+03, 4.485640999999999622e+03, 0.000000000000000000e+00, 0.000000000000000000e+00, 1.000000000000000000e+02
5.100000000000000000e+01, 4.577948999999999614e+03, 4.227692000000000007e+03, 4.095385000000000218e+03, 4.158462000000000444e+03, 4.500000000000000000e+03, 0.000000000000000000e+00, 0.000000000000000000e+00, 1.000000000000000000e+02
5.200000000000000000e+01, 4.585127999999999702e+03, 4.229743999999999687e+03, 4.077949000000000069e+03, 4.147692000000000007e+03, 4.508717999999999847e+03, 0.000000000000000000e+00, 0.000000000000000000e+00, 1.000000000000000000e+02
5.300000000000000000e+01, 4.580512999999999920e+03, 4.229743999999999687e+03, 4.067692000000000007e+03, 4.134359000000000378e+03, 4.500512999999999920e+03, 0.000000000000000000e+00, 0.000000000000000000e+00, 1.000000000000000000e+02
5.400000000000000000e+01, 4.579487000000000080e+03, 4.231795000000000073e+03, 4.077949000000000069e+03, 4.141537999999999556e+03, 4.496409999999999854e+03, 0.000000000000000000e+00, 0.000000000000000000e+00, 1.000000000000000000e+02
5.500000000000000000e+01, 4.583077000000000226e+03, 4.235896999999999935e+03, 4.089231000000000222e+03, 4.150769000000000233e+03, 4.513845999999999549e+03, 0.000000000000000000e+00, 0.000000000000000000e+00, 1.000000000000000000e+02
5.600000000000000000e+01, 4.580512999999999920e+03, 4.229743999999999687e+03, 4.086666999999999916e+03, 4.137435999999999694e+03, 4.523077000000000226e+03, 0.000000000000000000e+00, 0.000000000000000000e+00, 1.000000000000000000e+02
5.700000000000000000e+01, 4.569230999999999767e+03, 4.223590000000000146e+03, 4.092820999999999913e+03, 4.135896999999999935e+03, 4.518974000000000160e+03, 0.000000000000000000e+00, 0.000000000000000000e+00, 1.000000000000000000e+02
5.800000000000000000e+01, 4.562051000000000386e+03, 4.229743999999999687e+03, 4.109230999999999767e+03, 4.157948999999999614e+03, 4.520512999999999920e+03, 0.000000000000000000e+00, 0.000000000000000000e+00, 1.000000000000000000e+02
5.900000000000000000e+01, 4.569743999999999687e+03, 4.240000000000000000e+03, 4.118462000000000444e+03, 4.170769000000000233e+03, 4.531282000000000153e+03, 0.000000000000000000e+00, 0.000000000000000000e+00, 1.000000000000000000e+02
6.000000000000000000e+01, 4.573332999999999629e+03, 4.242051000000000386e+03, 4.128204999999999927e+03, 4.172820999999999913e+03, 4.537435999999999694e+03, 0.000000000000000000e+00, 0.000000000000000000e+00, 1.000000000000000000e+02
6.100000000000000000e+01, 4.569743999999999687e+03, 4.242051000000000386e+03, 4.140000000000000000e+03, 4.182564000000000306e+03, 4.548717999999999847e+03, 0.000000000000000000e+00, 0.000000000000000000e+00, 1.000000000000000000e+02
6.200000000000000000e+01, 4.578974000000000160e+03, 4.244103000000000065e+03, 4.135385000000000218e+03, 4.197435999999999694e+03, 4.566154000000000451e+03, 0.000000000000000000e+00, 0.000000000000000000e+00, 1.000000000000000000e+02
6.300000000000000000e+01, 4.577435999999999694e+03, 4.240000000000000000e+03, 4.123590000000000146e+03, 4.198462000000000444e+03, 4.560512999999999920e+03, 0.000000000000000000e+00, 0.000000000000000000e+00, 1.000000000000000000e+02
6.400000000000000000e+01, 4.558462000000000444e+03, 4.229743999999999687e+03, 4.111795000000000073e+03, 4.177948999999999614e+03, 4.540000000000000000e+03, 0.000000000000000000e+00, 0.000000000000000000e+00, 1.000000000000000000e+02
6.500000000000000000e+01, 4.564614999999999782e+03, 4.229743999999999687e+03, 4.096409999999999854e+03, 4.154872000000000298e+03, 4.535896999999999935e+03, 0.000000000000000000e+00, 0.000000000000000000e+00, 1.000000000000000000e+02
6.600000000000000000e+01, 4.594872000000000298e+03, 4.240000000000000000e+03, 4.086666999999999916e+03, 4.150769000000000233e+03, 4.551282000000000153e+03, 0.000000000000000000e+00, 0.000000000000000000e+00, 1.000000000000000000e+02
6.700000000000000000e+01, 4.608204999999999927e+03, 4.240000000000000000e+03, 4.084103000000000065e+03, 4.145127999999999702e+03, 4.571282000000000153e+03, 0.000000000000000000e+00, 0.000000000000000000e+00, 1.000000000000000000e+02
6.800000000000000000e+01, 4.610769000000000233e+03, 4.233845999999999549e+03, 4.077436000000000149e+03, 4.115385000000000218e+03, 4.583590000000000146e+03, 0.000000000000000000e+00, 0.000000000000000000e+00, 1.000000000000000000e+02
6.900000000000000000e+01, 4.630256000000000313e+03, 4.240000000000000000e+03, 4.086153999999999996e+03, 4.106154000000000451e+03, 4.604614999999999782e+03, 0.000000000000000000e+00, 0.000000000000000000e+00, 1.000000000000000000e+02
7.000000000000000000e+01, 4.641025999999999840e+03, 4.250256000000000313e+03, 4.111795000000000073e+03, 4.125640999999999622e+03, 4.621537999999999556e+03, 0.000000000000000000e+00, 0.000000000000000000e+00, 1.000000000000000000e+02
7.100000000000000000e+01, 4.623590000000000146e+03, 4.242051000000000386e+03, 4.121537999999999556e+03, 4.134872000000000298e+03, 4.611282000000000153e+03, 0.000000000000000000e+00, 0.000000000000000000e+00, 1.000000000000000000e+02
7.200000000000000000e+01, 4.612820999999999913e+03, 4.229743999999999687e+03, 4.126154000000000451e+03, 4.145640999999999622e+03, 4.601025999999999840e+03, 0.000000000000000000e+00, 0.000000000000000000e+00, 1.000000000000000000e+02
7.300000000000000000e+01, 4.612820999999999913e+03, 4.237948999999999614e+03, 4.152307999999999993e+03, 4.178462000000000444e+03, 4.604103000000000065e+03, 0.000000000000000000e+00, 0.000000000000000000e+00, 1.000000000000000000e+02
7.400000000000000000e+01, 4.601537999999999556e+03, 4.252307999999999993e+03, 4.172307999999999993e+03, 4.192307999999999993e+03, 4.601537999999999556e+03, 0.000000000000000000e+00, 0.000000000000000000e+00, 1.000000000000000000e+02
7.500000000000000000e+01, 4.590769000000000233e+03, 4.250256000000000313e+03, 4.167692000000000007e+03, 4.183590000000000146e+03, 4.601025999999999840e+03, 0.000000000000000000e+00, 0.000000000000000000e+00, 1.000000000000000000e+02
7.600000000000000000e+01, 4.591282000000000153e+03, 4.246154000000000451e+03, 4.155385000000000218e+03, 4.184614999999999782e+03, 4.605640999999999622e+03, 0.000000000000000000e+00, 0.000000000000000000e+00, 1.000000000000000000e+02
7.700000000000000000e+01, 4.582564000000000306e+03, 4.246154000000000451e+03, 4.138974000000000160e+03, 4.175896999999999935e+03, 4.594872000000000298e+03, 0.000000000000000000e+00, 0.000000000000000000e+00, 1.000000000000000000e+02
7.800000000000000000e+01, 4.570256000000000313e+03, 4.235896999999999935e+03, 4.122051000000000386e+03, 4.160000000000000000e+03, 4.581025999999999840e+03, 0.000000000000000000e+00, 0.000000000000000000e+00, 1.000000000000000000e+02
7.900000000000000000e+01, 4.572307999999999993e+03, 4.229743999999999687e+03, 4.112820999999999913e+03, 4.160000000000000000e+03, 4.582564000000000306e+03, 0.000000000000000000e+00, 0.000000000000000000e+00, 1.000000000000000000e+02
8.000000000000000000e+01, 4.565127999999999702e+03, 4.229743999999999687e+03, 4.102564000000000306e+03, 4.149743999999999687e+03, 4.574872000000000298e+03, 0.000000000000000000e+00, 0.000000000000000000e+00, 1.000000000000000000e+02
8.100000000000000000e+01, 4.555896999999999935e+03, 4.229743999999999687e+03, 4.101025999999999840e+03, 4.135385000000000218e+03, 4.567179000000000087e+03, 0.000000000000000000e+00, 0.000000000000000000e+00, 1.000000000000000000e+02
8.200000000000000000e+01, 4.563590000000000146e+03, 4.229743999999999687e+03, 4.108204999999999927e+03, 4.135385000000000218e+03, 4.586667000000000371e+03, 0.000000000000000000e+00, 0.000000000000000000e+00, 1.000000000000000000e+02
8.300000000000000000e+01, 4.569230999999999767e+03, 4.227692000000000007e+03, 4.105127999999999702e+03, 4.128717999999999847e+03, 4.606154000000000451e+03, 0.000000000000000000e+00, 0.000000000000000000e+00, 1.000000000000000000e+02
8.400000000000000000e+01, 4.572820999999999913e+03, 4.227692000000000007e+03, 4.109743999999999687e+03, 4.117948999999999614e+03, 4.615385000000000218e+03, 0.000000000000000000e+00, 0.000000000000000000e+00, 1.000000000000000000e+02
8.500000000000000000e+01, 4.580000000000000000e+03, 4.229743999999999687e+03, 4.129230999999999767e+03, 4.116922999999999774e+03, 4.620000000000000000e+03, 0.000000000000000000e+00, 0.000000000000000000e+00, 1.000000000000000000e+02
8.600000000000000000e+01, 4.569230999999999767e+03, 4.231795000000000073e+03, 4.139487000000000080e+03, 4.117948999999999614e+03, 4.620512999999999920e+03, 0.000000000000000000e+00, 0.000000000000000000e+00, 1.000000000000000000e+02
8.700000000000000000e+01, 4.548204999999999927e+03, 4.231795000000000073e+03, 4.144103000000000065e+03, 4.135385000000000218e+03, 4.622564000000000306e+03, 0.000000000000000000e+00, 0.000000000000000000e+00, 1.000000000000000000e+02
8.800000000000000000e+01, 4.533332999999999629e+03, 4.235896999999999935e+03, 4.143077000000000226e+03, 4.160512999999999920e+03, 4.617435999999999694e+03, 0.000000000000000000e+00, 0.000000000000000000e+00, 1.000000000000000000e+02
8.900000000000000000e+01, 4.517948999999999614e+03, 4.229743999999999687e+03, 4.133332999999999629e+03, 4.160512999999999920e+03, 4.602564000000000306e+03, 0.000000000000000000e+00, 0.000000000000000000e+00, 1.000000000000000000e+02
9.000000000000000000e+01, 4.492307999999999993e+03, 4.221537999999999556e+03, 4.136922999999999774e+03, 4.159487000000000080e+03, 4.592820999999999913e+03, 0.000000000000000000e+00, 0.000000000000000000e+00, 1.000000000000000000e+02
9.100000000000000000e+01, 4.470769000000000233e+03, 4.221537999999999556e+03, 4.135385000000000218e+03, 4.169230999999999767e+03, 4.580000000000000000e+03, 0.000000000000000000e+00, 0.000000000000000000e+00, 1.000000000000000000e+02
9.200000000000000000e+01, 4.467692000000000007e+03, 4.223590000000000146e+03, 4.119487000000000080e+03, 4.169230999999999767e+03, 4.563590000000000146e+03, 1.000000000000000000e+00, 1.000000000000000000e+00, 1.000000000000000000e+02
9.300000000000000000e+01, 4.482051000000000386e+03, 4.231795000000000073e+03, 4.128717999999999847e+03, 4.179487000000000080e+03, 4.568717999999999847e+03, 1.000000000000000000e+00, 1.000000000000000000e+00, 1.000000000000000000e+02
9.400000000000000000e+01, 4.489230999999999767e+03, 4.229743999999999687e+03, 4.142051000000000386e+03, 4.191795000000000073e+03, 4.584614999999999782e+03, 1.000000000000000000e+00, 1.000000000000000000e+00, 1.000000000000000000e+02
9.500000000000000000e+01, 4.479487000000000080e+03, 4.217435999999999694e+03, 4.127692000000000007e+03, 4.173845999999999549e+03, 4.580000000000000000e+03, 1.000000000000000000e+00, 1.000000000000000000e+00, 1.000000000000000000e+02
9.600000000000000000e+01, 4.482051000000000386e+03, 4.223590000000000146e+03, 4.133332999999999629e+03, 4.168204999999999927e+03, 4.581537999999999556e+03, 1.000000000000000000e+00, 1.000000000000000000e+00, 1.000000000000000000e+02
9.700000000000000000e+01, 4.502051000000000386e+03, 4.244103000000000065e+03, 4.156409999999999854e+03, 4.193845999999999549e+03, 4.608717999999999847e+03, 1.000000000000000000e+00, 1.000000000000000000e+00, 1.000000000000000000e+02
9.800000000000000000e+01, 4.503077000000000226e+03, 4.237948999999999614e+03, 4.145640999999999622e+03, 4.189230999999999767e+03, 4.618974000000000160e+03, 1.000000000000000000e+00, 1.000000000000000000e+00, 1.000000000000000000e+02
9.900000000000000000e+01, 4.485127999999999702e+03, 4.221537999999999556e+03, 4.128717999999999847e+03, 4.164103000000000065e+03, 4.606667000000000371e+03, 1.000000000000000000e+00, 1.000000000000000000e+00, 1.000000000000000000e+02
1.000000000000000000e+02, 4.476922999999999774e+03, 4.227692000000000007e+03, 4.144614999999999782e+03, 4.167179000000000087e+03, 4.606154000000000451e+03, 1.000000000000000000e+00, 1.000000000000000000e+00, 1.000000000000000000e+02
1.010000000000000000e+02, 4.463590000000000146e+03, 4.237948999999999614e+03, 4.157435999999999694e+03, 4.170256000000000313e+03, 4.600000000000000000e+03, 1.000000000000000000e+00, 1.000000000000000000e+00, 1.000000000000000000e+02
1.020000000000000000e+02, 4.434872000000000298e+03, 4.227692000000000007e+03, 4.143590000000000146e+03, 4.156922999999999774e+03, 4.576409999999999854e+03, 1.000000000000000000e+00, 1.000000000000000000e+00, 1.000000000000000000e+02
