COUNTER, AF3, T7, Pz, T8, AF4, MARKERS['YES','NO'], TICK, ContactQuality
2.000000000000000000e+00, 5.500512999999999920e+03, 4.090255999999999858e+03, 4.098462000000000444e+03, 4.235385000000000218e+03, 5.564614999999999782e+03, 0.000000000000000000e+00, 0.000000000000000000e+00, 1.000000000000000000e+02
3.000000000000000000e+00, 5.501537999999999556e+03, 4.092307999999999993e+03, 4.097948999999999614e+03, 4.244103000000000065e+03, 5.565127999999999702e+03, 0.000000000000000000e+00, 0.000000000000000000e+00, 1.000000000000000000e+02
4.000000000000000000e+00, 5.492307999999999993e+03, 4.088204999999999927e+03, 4.095385000000000218e+03, 4.240512999999999920e+03, 5.569743999999999687e+03, 0.000000000000000000e+00, 0.000000000000000000e+00, 1.000000000000000000e+02
5.000000000000000000e+00, 5.483590000000000146e+03, 4.088204999999999927e+03, 4.103590000000000146e+03, 4.225640999999999622e+03, 5.570769000000000233e+03, 0.000000000000000000e+00, 0.000000000000000000e+00, 1.000000000000000000e+02
6.000000000000000000e+00, 5.480512999999999920e+03, 4.092307999999999993e+03, 4.116922999999999774e+03, 4.235385000000000218e+03, 5.571795000000000073e+03, 0.000000000000000000e+00, 0.000000000000000000e+00, 1.000000000000000000e+02
7.000000000000000000e+00, 5.475385000000000218e+03, 4.090255999999999858e+03, 4.115896999999999935e+03, 4.251795000000000073e+03, 5.573845999999999549e+03, 0.000000000000000000e+00, 0.000000000000000000e+00, 1.000000000000000000e+02
8.000000000000000000e+00, 5.474359000000000378e+03, 4.092307999999999993e+03, 4.106667000000000371e+03, 4.240512999999999920e+03, 5.577948999999999614e+03, 0.000000000000000000e+00, 0.000000000000000000e+00, 1.000000000000000000e+02
9.000000000000000000e+00, 5.471795000000000073e+03, 4.102564000000000306e+03, 4.106667000000000371e+03, 4.229230999999999767e+03, 5.575896999999999935e+03, 0.000000000000000000e+00, 0.000000000000000000e+00, 1.000000000000000000e+02
1.000000000000000000e+01, 5.463590000000000146e+03, 4.106667000000000371e+03, 4.120000000000000000e+03, 4.242564000000000306e+03, 5.576922999999999774e+03, 0.000000000000000000e+00, 0.000000000000000000e+00, 1.000000000000000000e+02
1.100000000000000000e+01, 5.458462000000000444e+03, 4.096409999999999854e+03, 4.120512999999999920e+03, 4.246667000000000371e+03, 5.576922999999999774e+03, 0.000000000000000000e+00, 0.000000000000000000e+00, 1.000000000000000000e+02
1.200000000000000000e+01, 5.461537999999999556e+03, 4.092307999999999993e+03, 4.107179000000000087e+03, 4.235385000000000218e+03, 5.573332999999999629e+03, 0.000000000000000000e+00, 0.000000000000000000e+00, 1.000000000000000000e+02
1.300000000000000000e+01, 5.463077000000000226e+03, 4.090255999999999858e+03, 4.104103000000000065e+03, 4.228717999999999847e+03, 5.571795000000000073e+03, 0.000000000000000000e+00, 0.000000000000000000e+00, 1.000000000000000000e+02
1.400000000000000000e+01, 5.443077000000000226e+03, 4.086153999999999996e+03, 4.102564000000000306e+03, 4.223077000000000226e+03, 5.552820999999999913e+03, 0.000000000000000000e+00, 0.000000000000000000e+00, 1.000000000000000000e+02
1.500000000000000000e+01, 5.426154000000000451e+03, 4.088204999999999927e+03, 4.100000000000000000e+03, 4.221537999999999556e+03, 5.539487000000000080e+03, 0.000000000000000000e+00, 0.000000000000000000e+00, 1.000000000000000000e+02
1.600000000000000000e+01, 5.424103000000000065e+03, 4.090255999999999858e+03, 4.099487000000000080e+03, 4.216409999999999854e+03, 5.534359000000000378e+03, 0.000000000000000000e+00, 0.000000000000000000e+00, 1.000000000000000000e+02
1.700000000000000000e+01, 5.414359000000000378e+03, 4.088204999999999927e+03, 4.096409999999999854e+03, 4.204103000000000065e+03, 5.513845999999999549e+03, 0.000000000000000000e+00, 0.000000000000000000e+00, 1.000000000000000000e+02
1.800000000000000000e+01, 5.414872000000000298e+03, 4.086153999999999996e+03, 4.103077000000000226e+03, 4.208204999999999927e+03, 5.518462000000000444e+03, 0.000000000000000000e+00, 0.000000000000000000e+00, 1.000000000000000000e+02
1.900000000000000000e+01, 5.422051000000000386e+03, 4.098462000000000444e+03, 4.115385000000000218e+03, 4.216922999999999774e+03, 5.533332999999999629e+03, 0.000000000000000000e+00, 0.000000000000000000e+00, 1.000000000000000000e+02
2.000000000000000000e+01, 5.418462000000000444e+03, 4.100512999999999920e+03, 4.124103000000000065e+03, 4.212820999999999913e+03, 5.523590000000000146e+03, 0.000000000000000000e+00, 0.000000000000000000e+00, 1.000000000000000000e+02
2.100000000000000000e+01, 5.412820999999999913e+03, 4.086153999999999996e+03, 4.124614999999999782e+03, 4.207179000000000087e+03, 5.510256000000000313e+03, 0.000000000000000000e+00, 0.000000000000000000e+00, 1.000000000000000000e+02
2.200000000000000000e+01, 5.404614999999999782e+03, 4.080000000000000000e+03, 4.107692000000000007e+03, 4.196922999999999774e+03, 5.498974000000000160e+03, 0.000000000000000000e+00, 0.000000000000000000e+00, 1.000000000000000000e+02
2.300000000000000000e+01, 5.404103000000000065e+03, 4.086153999999999996e+03, 4.098974000000000160e+03, 4.193845999999999549e+03, 5.501537999999999556e+03, 0.000000000000000000e+00, 0.000000000000000000e+00, 1.000000000000000000e+02
2.400000000000000000e+01, 5.411282000000000153e+03, 4.086153999999999996e+03, 4.100000000000000000e+03, 4.205127999999999702e+03, 5.511795000000000073e+03, 0.000000000000000000e+00, 0.000000000000000000e+00, 1.000000000000000000e+02
2.500000000000000000e+01, 5.416409999999999854e+03, 4.084103000000000065e+03, 4.101537999999999556e+03, 4.208717999999999847e+03, 5.514359000000000378e+03, 0.000000000000000000e+00, 0.000000000000000000e+00, 1.000000000000000000e+02
2.600000000000000000e+01, 5.413332999999999629e+03, 4.090255999999999858e+03, 4.107692000000000007e+03, 4.192820999999999913e+03, 5.508204999999999927e+03, 0.000000000000000000e+00, 0.000000000000000000e+00, 1.000000000000000000e+02
2.700000000000000000e+01, 5.404103000000000065e+03, 4.092307999999999993e+03, 4.114359000000000378e+03, 4.188204999999999927e+03, 5.502564000000000306e+03, 0.000000000000000000e+00, 0.000000000000000000e+00, 1.000000000000000000e+02
2.800000000000000000e+01, 5.404103000000000065e+03, 4.092307999999999993e+03, 4.133332999999999629e+03, 4.205127999999999702e+03, 5.516922999999999774e+03, 0.000000000000000000e+00, 0.000000000000000000e+00, 1.000000000000000000e+02
2.900000000000000000e+01, 5.404103000000000065e+03, 4.096409999999999854e+03, 4.145640999999999622e+03, 4.213845999999999549e+03, 5.523077000000000226e+03, 0.000000000000000000e+00, 0.000000000000000000e+00, 1.000000000000000000e+02
3.000000000000000000e+01, 5.403077000000000226e+03, 4.100512999999999920e+03, 4.145640999999999622e+03, 4.211795000000000073e+03, 5.519487000000000080e+03, 0.000000000000000000e+00, 0.000000000000000000e+00, 1.000000000000000000e+02
3.100000000000000000e+01, 5.407692000000000007e+03, 4.104614999999999782e+03, 4.147692000000000007e+03, 4.211795000000000073e+03, 5.525640999999999622e+03, 0.000000000000000000e+00, 0.000000000000000000e+00, 1.000000000000000000e+02
3.200000000000000000e+01, 5.404614999999999782e+03, 4.110769000000000233e+03, 4.149230999999999767e+03, 4.217948999999999614e+03, 5.527179000000000087e+03, 0.000000000000000000e+00, 0.000000000000000000e+00, 1.000000000000000000e+02
3.300000000000000000e+01, 5.398974000000000160e+03, 4.112820999999999913e+03, 4.157948999999999614e+03, 4.235896999999999935e+03, 5.536922999999999774e+03, 0.000000000000000000e+00, 0.000000000000000000e+00, 1.000000000000000000e+02
3.400000000000000000e+01, 5.393332999999999629e+03, 4.106667000000000371e+03, 4.155385000000000218e+03, 4.244614999999999782e+03, 5.538462000000000444e+03, 0.000000000000000000e+00, 0.000000000000000000e+00, 1.000000000000000000e+02
3.500000000000000000e+01, 5.392820999999999913e+03, 4.112820999999999913e+03, 4.146667000000000371e+03, 4.231795000000000073e+03, 5.526154000000000451e+03, 0.000000000000000000e+00, 0.000000000000000000e+00, 1.000000000000000000e+02
3.600000000000000000e+01, 5.393845999999999549e+03, 4.121025999999999840e+03, 4.151795000000000073e+03, 4.220512999999999920e+03, 5.523077000000000226e+03, 0.000000000000000000e+00, 0.000000000000000000e+00, 1.000000000000000000e+02
3.700000000000000000e+01, 5.387179000000000087e+03, 4.112820999999999913e+03, 4.147692000000000007e+03, 4.227179000000000087e+03, 5.519487000000000080e+03, 0.000000000000000000e+00, 0.000000000000000000e+00, 1.000000000000000000e+02
3.800000000000000000e+01, 5.386154000000000451e+03, 4.104614999999999782e+03, 4.139487000000000080e+03, 4.234872000000000298e+03, 5.520512999999999920e+03, 0.000000000000000000e+00, 0.000000000000000000e+00, 1.000000000000000000e+02
3.900000000000000000e+01, 5.378974000000000160e+03, 4.104614999999999782e+03, 4.136409999999999854e+03, 4.220000000000000000e+03, 5.515385000000000218e+03, 0.000000000000000000e+00, 0.000000000000000000e+00, 1.000000000000000000e+02
4.000000000000000000e+01, 5.360512999999999920e+03, 4.106667000000000371e+03, 4.136922999999999774e+03, 4.197948999999999614e+03, 5.500000000000000000e+03, 0.000000000000000000e+00, 0.000000000000000000e+00, 1.000000000000000000e+02
4.100000000000000000e+01, 5.356922999999999774e+03, 4.114872000000000298e+03, 4.152307999999999993e+03, 4.208204999999999927e+03, 5.495896999999999935e+03, 0.000000000000000000e+00, 0.000000000000000000e+00, 1.000000000000000000e+02
4.200000000000000000e+01, 5.349230999999999767e+03, 4.123077000000000226e+03, 4.162051000000000386e+03, 4.221537999999999556e+03, 5.488717999999999847e+03, 0.000000000000000000e+00, 0.000000000000000000e+00, 1.000000000000000000e+02
4.300000000000000000e+01, 5.331795000000000073e+03, 4.118974000000000160e+03, 4.156409999999999854e+03, 4.205127999999999702e+03, 5.480512999999999920e+03, 0.000000000000000000e+00, 0.000000000000000000e+00, 1.000000000000000000e+02
4.400000000000000000e+01, 5.328204999999999927e+03, 4.116922999999999774e+03, 4.158462000000000444e+03, 4.196409999999999854e+03, 5.477948999999999614e+03, 0.000000000000000000e+00, 0.000000000000000000e+00, 1.000000000000000000e+02
4.500000000000000000e+01, 5.333332999999999629e+03, 4.118974000000000160e+03, 4.166154000000000451e+03, 4.212820999999999913e+03, 5.474359000000000378e+03, 0.000000000000000000e+00, 0.000000000000000000e+00, 1.000000000000000000e+02
4.600000000000000000e+01, 5.333332999999999629e+03, 4.127179000000000087e+03, 4.164103000000000065e+03, 4.218974000000000160e+03, 5.476409999999999854e+03, 0.000000000000000000e+00, 0.000000000000000000e+00, 1.000000000000000000e+02
4.700000000000000000e+01, 5.327179000000000087e+03, 4.123077000000000226e+03, 4.151795000000000073e+03, 4.208717999999999847e+03, 5.467692000000000007e+03, 0.000000000000000000e+00, 0.000000000000000000e+00, 1.000000000000000000e+02
4.800000000000000000e+01, 5.323590000000000146e+03, 4.106667000000000371e+03, 4.153845999999999549e+03, 4.217435999999999694e+03, 5.461025999999999840e+03, 0.000000000000000000e+00, 0.000000000000000000e+00, 1.000000000000000000e+02
4.900000000000000000e+01, 5.321025999999999840e+03, 4.106667000000000371e+03, 4.151795000000000073e+03, 4.229743999999999687e+03, 5.466667000000000371e+03, 0.000000000000000000e+00, 0.000000000000000000e+00, 1.000000000000000000e+02
5.000000000000000000e+01, 5.302051000000000386e+03, 4.123077000000000226e+03, 4.141537999999999556e+03, 4.207179000000000087e+03, 5.462564000000000306e+03, 0.000000000000000000e+00, 0.000000000000000000e+00, 1.000000000000000000e+02
5.100000000000000000e+01, 5.285127999999999702e+03, 4.123077000000000226e+03, 4.153332999999999629e+03, 4.193332999999999629e+03, 5.457435999999999694e+03, 0.000000000000000000e+00, 0.000000000000000000e+00, 1.000000000000000000e+02
5.200000000000000000e+01, 5.287692000000000007e+03, 4.116922999999999774e+03, 4.159487000000000080e+03, 4.214359000000000378e+03, 5.464103000000000065e+03, 0.000000000000000000e+00, 0.000000000000000000e+00, 1.000000000000000000e+02
5.300000000000000000e+01, 5.303590000000000146e+03, 4.121025999999999840e+03, 4.149743999999999687e+03, 4.232820999999999913e+03, 5.480512999999999920e+03, 0.000000000000000000e+00, 0.000000000000000000e+00, 1.000000000000000000e+02
5.400000000000000000e+01, 5.318462000000000444e+03, 4.118974000000000160e+03, 4.156409999999999854e+03, 4.230256000000000313e+03, 5.493845999999999549e+03, 0.000000000000000000e+00, 0.000000000000000000e+00, 1.000000000000000000e+02
5.500000000000000000e+01, 5.332820999999999913e+03, 4.116922999999999774e+03, 4.171282000000000153e+03, 4.226667000000000371e+03, 5.501537999999999556e+03, 0.000000000000000000e+00, 0.000000000000000000e+00, 1.000000000000000000e+02
5.600000000000000000e+01, 5.349743999999999687e+03, 4.135385000000000218e+03, 4.176922999999999774e+03, 4.235896999999999935e+03, 5.516409999999999854e+03, 0.000000000000000000e+00, 0.000000000000000000e+00, 1.000000000000000000e+02
5.700000000000000000e+01, 5.354359000000000378e+03, 4.147692000000000007e+03, 4.182564000000000306e+03, 4.252820999999999913e+03, 5.527692000000000007e+03, 0.000000000000000000e+00, 0.000000000000000000e+00, 1.000000000000000000e+02
5.800000000000000000e+01, 5.364103000000000065e+03, 4.141537999999999556e+03, 4.200000000000000000e+03, 4.271282000000000153e+03, 5.545127999999999702e+03, 0.000000000000000000e+00, 0.000000000000000000e+00, 1.000000000000000000e+02
5.900000000000000000e+01, 5.385127999999999702e+03, 4.135385000000000218e+03, 4.207692000000000007e+03, 4.269230999999999767e+03, 5.562051000000000386e+03, 0.000000000000000000e+00, 0.000000000000000000e+00, 1.000000000000000000e+02
6.000000000000000000e+01, 5.373845999999999549e+03, 4.139487000000000080e+03, 4.191282000000000153e+03, 4.252820999999999913e+03, 5.537948999999999614e+03, 0.000000000000000000e+00, 0.000000000000000000e+00, 1.000000000000000000e+02
6.100000000000000000e+01, 5.351282000000000153e+03, 4.133332999999999629e+03, 4.185640999999999622e+03, 4.255896999999999935e+03, 5.516409999999999854e+03, 0.000000000000000000e+00, 0.000000000000000000e+00, 1.000000000000000000e+02
6.200000000000000000e+01, 5.343590000000000146e+03, 4.129230999999999767e+03, 4.191795000000000073e+03, 4.263590000000000146e+03, 5.512307999999999993e+03, 0.000000000000000000e+00, 0.000000000000000000e+00, 1.000000000000000000e+02
6.300000000000000000e+01, 5.333332999999999629e+03, 4.141537999999999556e+03, 4.194359000000000378e+03, 4.263077000000000226e+03, 5.500000000000000000e+03, 0.000000000000000000e+00, 0.000000000000000000e+00, 1.000000000000000000e+02
6.400000000000000000e+01, 5.321537999999999556e+03, 4.155896999999999935e+03, 4.208717999999999847e+03, 4.265127999999999702e+03, 5.486154000000000451e+03, 0.000000000000000000e+00, 0.000000000000000000e+00, 1.000000000000000000e+02
6.500000000000000000e+01, 5.313845999999999549e+03, 4.151795000000000073e+03, 4.217435999999999694e+03, 4.267692000000000007e+03, 5.465127999999999702e+03, 0.000000000000000000e+00, 0.000000000000000000e+00, 1.000000000000000000e+02
6.600000000000000000e+01, 5.306154000000000451e+03, 4.147692000000000007e+03, 4.212820999999999913e+03, 4.266667000000000371e+03, 5.451282000000000153e+03, 0.000000000000000000e+00, 0.000000000000000000e+00, 1.000000000000000000e+02
6.700000000000000000e+01, 5.291795000000000073e+03, 4.155896999999999935e+03, 4.206667000000000371e+03, 4.261537999999999556e+03, 5.444103000000000065e+03, 0.000000000000000000e+00, 0.000000000000000000e+00, 1.000000000000000000e+02
6.800000000000000000e+01, 5.285127999999999702e+03, 4.157948999999999614e+03, 4.219487000000000080e+03, 4.260000000000000000e+03, 5.442051000000000386e+03, 0.000000000000000000e+00, 0.000000000000000000e+00, 1.000000000000000000e+02
6.900000000000000000e+01, 5.281537999999999556e+03, 4.155896999999999935e+03, 4.245127999999999702e+03, 4.258462000000000444e+03, 5.436409999999999854e+03, 0.000000000000000000e+00, 0.000000000000000000e+00, 1.000000000000000000e+02
7.000000000000000000e+01, 5.258974000000000160e+03, 4.164103000000000065e+03, 4.242051000000000386e+03, 4.261025999999999840e+03, 5.409230999999999767e+03, 0.000000000000000000e+00, 0.000000000000000000e+00, 1.000000000000000000e+02
7.100000000000000000e+01, 5.246154000000000451e+03, 4.172307999999999993e+03, 4.224614999999999782e+03, 4.273332999999999629e+03, 5.394872000000000298e+03, 0.000000000000000000e+00, 0.000000000000000000e+00, 1.000000000000000000e+02
7.200000000000000000e+01, 5.235896999999999935e+03, 4.168204999999999927e+03, 4.221537999999999556e+03, 4.261025999999999840e+03, 5.383590000000000146e+03, 0.000000000000000000e+00, 0.000000000000000000e+00, 1.000000000000000000e+02
7.300000000000000000e+01, 5.234872000000000298e+03, 4.172307999999999993e+03, 4.229743999999999687e+03, 4.246667000000000371e+03, 5.380000000000000000e+03, 0.000000000000000000e+00, 0.000000000000000000e+00, 1.000000000000000000e+02
7.400000000000000000e+01, 5.269230999999999767e+03, 4.180512999999999920e+03, 4.235896999999999935e+03, 4.265640999999999622e+03, 5.407692000000000007e+03, 0.000000000000000000e+00, 0.000000000000000000e+00, 1.000000000000000000e+02
7.500000000000000000e+01, 5.285127999999999702e+03, 4.176409999999999854e+03, 4.220000000000000000e+03, 4.270769000000000233e+03, 5.411282000000000153e+03, 0.000000000000000000e+00, 0.000000000000000000e+00, 1.000000000000000000e+02
7.600000000000000000e+01, 5.271282000000000153e+03, 4.168204999999999927e+03, 4.206154000000000451e+03, 4.244614999999999782e+03, 5.385127999999999702e+03, 0.000000000000000000e+00, 0.000000000000000000e+00, 1.000000000000000000e+02
7.700000000000000000e+01, 5.266154000000000451e+03, 4.170256000000000313e+03, 4.203590000000000146e+03, 4.236409999999999854e+03, 5.366667000000000371e+03, 0.000000000000000000e+00, 0.000000000000000000e+00, 1.000000000000000000e+02
7.800000000000000000e+01, 5.265127999999999702e+03, 4.174359000000000378e+03, 4.205127999999999702e+03, 4.246154000000000451e+03, 5.354872000000000298e+03, 0.000000000000000000e+00, 0.000000000000000000e+00, 1.000000000000000000e+02
7.900000000000000000e+01, 5.252307999999999993e+03, 4.174359000000000378e+03, 4.212820999999999913e+03, 4.249743999999999687e+03, 5.339487000000000080e+03, 0.000000000000000000e+00, 0.000000000000000000e+00, 1.000000000000000000e+02
8.000000000000000000e+01, 5.234872000000000298e+03, 4.174359000000000378e+03, 4.207692000000000007e+03, 4.254872000000000298e+03, 5.317435999999999694e+03, 0.000000000000000000e+00, 0.000000000000000000e+00, 1.000000000000000000e+02
8.100000000000000000e+01, 5.221537999999999556e+03, 4.172307999999999993e+03, 4.200512999999999920e+03, 4.252307999999999993e+03, 5.300000000000000000e+03, 0.000000000000000000e+00, 0.000000000000000000e+00, 1.000000000000000000e+02
8.200000000000000000e+01, 5.202564000000000306e+03, 4.164103000000000065e+03, 4.200000000000000000e+03, 4.238974000000000160e+03, 5.283590000000000146e+03, 0.000000000000000000e+00, 0.000000000000000000e+00, 1.000000000000000000e+02
8.300000000000000000e+01, 5.181025999999999840e+03, 4.160000000000000000e+03, 4.201537999999999556e+03, 4.238462000000000444e+03, 5.266154000000000451e+03, 0.000000000000000000e+00, 0.000000000000000000e+00, 1.000000000000000000e+02
8.400000000000000000e+01, 5.170256000000000313e+03, 4.166154000000000451e+03, 4.214359000000000378e+03, 4.249743999999999687e+03, 5.251282000000000153e+03, 0.000000000000000000e+00, 0.000000000000000000e+00, 1.000000000000000000e+02
8.500000000000000000e+01, 5.158974000000000160e+03, 4.170256000000000313e+03, 4.222051000000000386e+03, 4.246154000000000451e+03, 5.227179000000000087e+03, 0.000000000000000000e+00, 0.000000000000000000e+00, 1.000000000000000000e+02
8.600000000000000000e+01, 5.148204999999999927e+03, 4.168204999999999927e+03, 4.221537999999999556e+03, 4.237435999999999694e+03, 5.211282000000000153e+03, 0.000000000000000000e+00, 0.000000000000000000e+00, 1.000000000000000000e+02
8.700000000000000000e+01, 5.147179000000000087e+03, 4.174359000000000378e+03, 4.220512999999999920e+03, 4.240000000000000000e+03, 5.200000000000000000e+03, 0.000000000000000000e+00, 0.000000000000000000e+00, 1.000000000000000000e+02
8.800000000000000000e+01, 5.144614999999999782e+03, 4.174359000000000378e+03, 4.214872000000000298e+03, 4.235385000000000218e+03, 5.177948999999999614e+03, 0.000000000000000000e+00, 0.000000000000000000e+00, 1.000000000000000000e+02
8.900000000000000000e+01, 5.132820999999999913e+03, 4.160000000000000000e+03, 4.210256000000000313e+03, 4.231282000000000153e+03, 5.161025999999999840e+03, 0.000000000000000000e+00, 0.000000000000000000e+00, 1.000000000000000000e+02
9.000000000000000000e+01, 5.112307999999999993e+03, 4.157948999999999614e+03, 4.207179000000000087e+03, 4.234359000000000378e+03, 5.144103000000000065e+03, 0.000000000000000000e+00, 0.000000000000000000e+00, 1.000000000000000000e+02
9.100000000000000000e+01, 5.099487000000000080e+03, 4.166154000000000451e+03, 4.205127999999999702e+03, 4.239487000000000080e+03, 5.137948999999999614e+03, 0.000000000000000000e+00, 0.000000000000000000e+00, 1.000000000000000000e+02
9.200000000000000000e+01, 5.099487000000000080e+03, 4.170256000000000313e+03, 4.203077000000000226e+03, 4.242564000000000306e+03, 5.134872000000000298e+03, 0.000000000000000000e+00, 0.000000000000000000e+00, 1.000000000000000000e+02
9.300000000000000000e+01, 5.097435999999999694e+03, 4.170256000000000313e+03, 4.203590000000000146e+03, 4.247179000000000087e+03, 5.114872000000000298e+03, 0.000000000000000000e+00, 0.000000000000000000e+00, 1.000000000000000000e+02
9.400000000000000000e+01, 5.086667000000000371e+03, 4.168204999999999927e+03, 4.213845999999999549e+03, 4.252820999999999913e+03, 5.100000000000000000e+03, 0.000000000000000000e+00, 0.000000000000000000e+00, 1.000000000000000000e+02
9.500000000000000000e+01, 5.063590000000000146e+03, 4.162051000000000386e+03, 4.214359000000000378e+03, 4.251282000000000153e+03, 5.080000000000000000e+03, 0.000000000000000000e+00, 0.000000000000000000e+00, 1.000000000000000000e+02
9.600000000000000000e+01, 5.048204999999999927e+03, 4.155896999999999935e+03, 4.215896999999999935e+03, 4.252820999999999913e+03, 5.054359000000000378e+03, 0.000000000000000000e+00, 0.000000000000000000e+00, 1.000000000000000000e+02
9.700000000000000000e+01, 5.043077000000000226e+03, 4.151795000000000073e+03, 4.224103000000000065e+03, 4.253332999999999629e+03, 5.043077000000000226e+03, 0.000000000000000000e+00, 0.000000000000000000e+00, 1.000000000000000000e+02
9.800000000000000000e+01, 5.027179000000000087e+03, 4.151795000000000073e+03, 4.220512999999999920e+03, 4.244103000000000065e+03, 5.021537999999999556e+03, 0.000000000000000000e+00, 0.000000000000000000e+00, 1.000000000000000000e+02
9.900000000000000000e+01, 5.020000000000000000e+03, 4.151795000000000073e+03, 4.220000000000000000e+03, 4.239487000000000080e+03, 5.002051000000000386e+03, 0.000000000000000000e+00, 0.000000000000000000e+00, 1.000000000000000000e+02
1.000000000000000000e+02, 5.021537999999999556e+03, 4.153845999999999549e+03, 4.216409999999999854e+03, 4.241025999999999840e+03, 4.992307999999999993e+03, 0.000000000000000000e+00, 0.000000000000000000e+00, 1.000000000000000000e+02
1.010000000000000000e+02, 5.012307999999999993e+03, 4.149743999999999687e+03, 4.204103000000000065e+03, 4.240000000000000000e+03, 4.976409999999999854e+03, 0.000000000000000000e+00, 0.000000000000000000e+00, 1.000000000000000000e+02
1.020000000000000000e+02, 5.002564000000000306e+03, 4.149743999999999687e+03, 4.205127999999999702e+03, 4.237435999999999694e+03, 4.958974000000000160e+03, 0.000000000000000000e+00, 0.000000000000000000e+00, 1.000000000000000000e+02
1.030000000000000000e+02, 4.993332999999999629e+03, 4.151795000000000073e+03, 4.207179000000000087e+03, 4.230769000000000233e+03, 4.941025999999999840e+03, 0.000000000000000000e+00, 0.000000000000000000e+00, 1.000000000000000000e+02
1.040000000000000000e+02, 4.978462000000000444e+03, 4.147692000000000007e+03, 4.206154000000000451e+03, 4.223077000000000226e+03, 4.926154000000000451e+03, 0.000000000000000000e+00, 0.000000000000000000e+00, 1.000000000000000000e+02
1.050000000000000000e+02, 4.963077000000000226e+03, 4.149743999999999687e+03, 4.203077000000000226e+03, 4.221025999999999840e+03, 4.900000000000000000e+03, 0.000000000000000000e+00, 0.000000000000000000e+00, 1.000000000000000000e+02
1.060000000000000000e+02, 4.957948999999999614e+03, 4.166154000000000451e+03, 4.201537999999999556e+03, 4.225640999999999622e+03, 4.873332999999999629e+03, 0.000000000000000000e+00, 0.000000000000000000e+00, 1.000000000000000000e+02
1.070000000000000000e+02, 4.956409999999999854e+03, 4.168204999999999927e+03, 4.210769000000000233e+03, 4.238974000000000160e+03, 4.863077000000000226e+03, 0.000000000000000000e+00, 0.000000000000000000e+00, 1.000000000000000000e+02
1.080000000000000000e+02, 4.936409999999999854e+03, 4.160000000000000000e+03, 4.212307999999999993e+03, 4.247692000000000007e+03, 4.837948999999999614e+03, 0.000000000000000000e+00, 0.000000000000000000e+00, 1.000000000000000000e+02
1.090000000000000000e+02, 4.923077000000000226e+03, 4.157948999999999614e+03, 4.223077000000000226e+03, 4.254359000000000378e+03, 4.818462000000000444e+03, 0.000000000000000000e+00, 0.000000000000000000e+00, 1.000000000000000000e+02
1.100000000000000000e+02, 4.925640999999999622e+03, 4.168204999999999927e+03, 4.243590000000000146e+03, 4.261537999999999556e+03, 4.812307999999999993e+03, 0.000000000000000000e+00, 0.000000000000000000e+00, 1.000000000000000000e+02
1.110000000000000000e+02, 4.917948999999999614e+03, 4.170256000000000313e+03, 4.242564000000000306e+03, 4.257435999999999694e+03, 4.796409999999999854e+03, 0.000000000000000000e+00, 0.000000000000000000e+00, 1.000000000000000000e+02
1.120000000000000000e+02, 4.900512999999999920e+03, 4.155896999999999935e+03, 4.221025999999999840e+03, 4.244103000000000065e+03, 4.772307999999999993e+03, 0.000000000000000000e+00, 0.000000000000000000e+00, 1.000000000000000000e+02
1.130000000000000000e+02, 4.883590000000000146e+03, 4.147692000000000007e+03, 4.202051000000000386e+03, 4.243077000000000226e+03, 4.738974000000000160e+03, 0.000000000000000000e+00, 0.000000000000000000e+00, 1.000000000000000000e+02
1.140000000000000000e+02, 4.881537999999999556e+03, 4.151795000000000073e+03, 4.203590000000000146e+03, 4.254359000000000378e+03, 4.716409999999999854e+03, 0.000000000000000000e+00, 0.000000000000000000e+00, 1.000000000000000000e+02
1.150000000000000000e+02, 4.879487000000000080e+03, 4.155896999999999935e+03, 4.202051000000000386e+03, 4.250769000000000233e+03, 4.698462000000000444e+03, 0.000000000000000000e+00, 0.000000000000000000e+00, 1.000000000000000000e+02
1.160000000000000000e+02, 4.857435999999999694e+03, 4.147692000000000007e+03, 4.189743999999999687e+03, 4.237948999999999614e+03, 4.672820999999999913e+03, 0.000000000000000000e+00, 0.000000000000000000e+00, 1.000000000000000000e+02
1.170000000000000000e+02, 4.841537999999999556e+03, 4.141537999999999556e+03, 4.192820999999999913e+03, 4.235385000000000218e+03, 4.649230999999999767e+03, 0.000000000000000000e+00, 0.000000000000000000e+00, 1.000000000000000000e+02
1.180000000000000000e+02, 4.835896999999999935e+03, 4.143590000000000146e+03, 4.200000000000000000e+03, 4.233845999999999549e+03, 4.613845999999999549e+03, 0.000000000000000000e+00, 0.000000000000000000e+00, 1.000000000000000000e+02
1.190000000000000000e+02, 4.829743999999999687e+03, 4.149743999999999687e+03, 4.206667000000000371e+03, 4.235896999999999935e+03, 4.593845999999999549e+03, 0.000000000000000000e+00, 0.000000000000000000e+00, 1.000000000000000000e+02
1.200000000000000000e+02, 4.817435999999999694e+03, 4.155896999999999935e+03, 4.213845999999999549e+03, 4.236922999999999774e+03, 4.590256000000000313e+03, 0.000000000000000000e+00, 0.000000000000000000e+00, 1.000000000000000000e+02
1.210000000000000000e+02, 4.801025999999999840e+03, 4.153845999999999549e+03, 4.216409999999999854e+03, 4.230769000000000233e+03, 4.564614999999999782e+03, 0.000000000000000000e+00, 0.000000000000000000e+00, 1.000000000000000000e+02
1.220000000000000000e+02, 4.794872000000000298e+03, 4.153845999999999549e+03, 4.221025999999999840e+03, 4.234872000000000298e+03, 4.534359000000000378e+03, 0.000000000000000000e+00, 0.000000000000000000e+00, 1.000000000000000000e+02
1.230000000000000000e+02, 4.788717999999999847e+03, 4.162051000000000386e+03, 4.227692000000000007e+03, 4.244103000000000065e+03, 4.515385000000000218e+03, 0.000000000000000000e+00, 0.000000000000000000e+00, 1.000000000000000000e+02
1.240000000000000000e+02, 4.777435999999999694e+03, 4.166154000000000451e+03, 4.234359000000000378e+03, 4.251282000000000153e+03, 4.501025999999999840e+03, 0.000000000000000000e+00, 0.000000000000000000e+00, 1.000000000000000000e+02
1.250000000000000000e+02, 4.770256000000000313e+03, 4.157948999999999614e+03, 4.226154000000000451e+03, 4.261537999999999556e+03, 4.483077000000000226e+03, 0.000000000000000000e+00, 0.000000000000000000e+00, 1.000000000000000000e+02
1.260000000000000000e+02, 4.764614999999999782e+03, 4.143590000000000146e+03, 4.199487000000000080e+03, 4.251282000000000153e+03, 4.457948999999999614e+03, 0.000000000000000000e+00, 0.000000000000000000e+00, 1.000000000000000000e+02
1.270000000000000000e+02, 4.758974000000000160e+03, 4.135385000000000218e+03, 4.189743999999999687e+03, 4.233332999999999629e+03, 4.442051000000000386e+03, 0.000000000000000000e+00, 0.000000000000000000e+00, 1.000000000000000000e+02
0.000000000000000000e+00, 4.742051000000000386e+03, 4.137435999999999694e+03, 4.189743999999999687e+03, 4.240512999999999920e+03, 4.416922999999999774e+03, 0.000000000000000000e+00, 0.000000000000000000e+00, 1.000000000000000000e+02
1.000000000000000000e+00, 4.718462000000000444e+03, 4.139487000000000080e+03, 4.181025999999999840e+03, 4.242564000000000306e+03, 4.383590000000000146e+03, 0.000000000000000000e+00, 0.000000000000000000e+00, 1.000000000000000000e+02
2.000000000000000000e+00, 4.703590000000000146e+03, 4.133332999999999629e+03, 4.176409999999999854e+03, 4.216922999999999774e+03, 4.358462000000000444e+03, 0.000000000000000000e+00, 0.000000000000000000e+00, 1.000000000000000000e+02
3.000000000000000000e+00, 4.701025999999999840e+03, 4.133332999999999629e+03, 4.179487000000000080e+03, 4.208717999999999847e+03, 4.341537999999999556e+03, 0.000000000000000000e+00, 0.000000000000000000e+00, 1.000000000000000000e+02
4.000000000000000000e+00, 4.700000000000000000e+03, 4.143590000000000146e+03, 4.184103000000000065e+03, 4.224103000000000065e+03, 4.329743999999999687e+03, 0.000000000000000000e+00, 0.000000000000000000e+00, 1.000000000000000000e+02
5.000000000000000000e+00, 4.677948999999999614e+03, 4.149743999999999687e+03, 4.182051000000000386e+03, 4.220512999999999920e+03, 4.296922999999999774e+03, 0.000000000000000000e+00, 0.000000000000000000e+00, 1.000000000000000000e+02
6.000000000000000000e+00, 4.661537999999999556e+03, 4.149743999999999687e+03, 4.187179000000000087e+03, 4.209743999999999687e+03, 4.271795000000000073e+03, 0.000000000000000000e+00, 0.000000000000000000e+00, 1.000000000000000000e+02
7.000000000000000000e+00, 4.666667000000000371e+03, 4.153845999999999549e+03, 4.198974000000000160e+03, 4.215385000000000218e+03, 4.271795000000000073e+03, 0.000000000000000000e+00, 0.000000000000000000e+00, 1.000000000000000000e+02
8.000000000000000000e+00, 4.655385000000000218e+03, 4.157948999999999614e+03, 4.194872000000000298e+03, 4.219487000000000080e+03, 4.250256000000000313e+03, 0.000000000000000000e+00, 0.000000000000000000e+00, 1.000000000000000000e+02
9.000000000000000000e+00, 4.643077000000000226e+03, 4.149743999999999687e+03, 4.192820999999999913e+03, 4.220512999999999920e+03, 4.227692000000000007e+03, 0.000000000000000000e+00, 0.000000000000000000e+00, 1.000000000000000000e+02
1.000000000000000000e+01, 4.644103000000000065e+03, 4.151795000000000073e+03, 4.188717999999999847e+03, 4.224103000000000065e+03, 4.217435999999999694e+03, 0.000000000000000000e+00, 0.000000000000000000e+00, 1.000000000000000000e+02
1.100000000000000000e+01, 4.634872000000000298e+03, 4.162051000000000386e+03, 4.176409999999999854e+03, 4.222051000000000386e+03, 4.197435999999999694e+03, 0.000000000000000000e+00, 0.000000000000000000e+00, 1.000000000000000000e+02
1.200000000000000000e+01, 4.621025999999999840e+03, 4.157948999999999614e+03, 4.182564000000000306e+03, 4.226154000000000451e+03, 4.178462000000000444e+03, 0.000000000000000000e+00, 0.000000000000000000e+00, 1.000000000000000000e+02
1.300000000000000000e+01, 4.608717999999999847e+03, 4.147692000000000007e+03, 4.188717999999999847e+03, 4.226667000000000371e+03, 4.165127999999999702e+03, 0.000000000000000000e+00, 0.000000000000000000e+00, 1.000000000000000000e+02
1.400000000000000000e+01, 4.613332999999999629e+03, 4.155896999999999935e+03, 4.191795000000000073e+03, 4.231282000000000153e+03, 4.165640999999999622e+03, 0.000000000000000000e+00, 0.000000000000000000e+00, 1.000000000000000000e+02
1.500000000000000000e+01, 4.627179000000000087e+03, 4.178462000000000444e+03, 4.200000000000000000e+03, 4.241025999999999840e+03, 4.164103000000000065e+03, 0.000000000000000000e+00, 0.000000000000000000e+00, 1.000000000000000000e+02
1.600000000000000000e+01, 4.622051000000000386e+03, 4.182564000000000306e+03, 4.198974000000000160e+03, 4.229743999999999687e+03, 4.139487000000000080e+03, 0.000000000000000000e+00, 0.000000000000000000e+00, 1.000000000000000000e+02
1.700000000000000000e+01, 4.603077000000000226e+03, 4.176409999999999854e+03, 4.199487000000000080e+03, 4.216409999999999854e+03, 4.114359000000000378e+03, 0.000000000000000000e+00, 0.000000000000000000e+00, 1.000000000000000000e+02
1.800000000000000000e+01, 4.592820999999999913e+03, 4.184614999999999782e+03, 4.207179000000000087e+03, 4.221537999999999556e+03, 4.095896999999999935e+03, 0.000000000000000000e+00, 0.000000000000000000e+00, 1.000000000000000000e+02
1.900000000000000000e+01, 4.594872000000000298e+03, 4.196922999999999774e+03, 4.215896999999999935e+03, 4.222564000000000306e+03, 4.087179000000000087e+03, 0.000000000000000000e+00, 0.000000000000000000e+00, 1.000000000000000000e+02
2.000000000000000000e+01, 4.573845999999999549e+03, 4.188717999999999847e+03, 4.210256000000000313e+03, 4.213845999999999549e+03, 4.069231000000000222e+03, 0.000000000000000000e+00, 0.000000000000000000e+00, 1.000000000000000000e+02
2.100000000000000000e+01, 4.545127999999999702e+03, 4.178462000000000444e+03, 4.201025999999999840e+03, 4.220000000000000000e+03, 4.043077000000000226e+03, 0.000000000000000000e+00, 0.000000000000000000e+00, 1.000000000000000000e+02
2.200000000000000000e+01, 4.535385000000000218e+03, 4.186667000000000371e+03, 4.194872000000000298e+03, 4.217435999999999694e+03, 4.016922999999999774e+03, 0.000000000000000000e+00, 0.000000000000000000e+00, 1.000000000000000000e+02
2.300000000000000000e+01, 4.517948999999999614e+03, 4.188717999999999847e+03, 4.170256000000000313e+03, 4.198462000000000444e+03, 3.977949000000000069e+03, 0.000000000000000000e+00, 0.000000000000000000e+00, 1.000000000000000000e+02
2.400000000000000000e+01, 4.500000000000000000e+03, 4.170256000000000313e+03, 4.154359000000000378e+03, 4.203590000000000146e+03, 3.959487000000000080e+03, 0.000000000000000000e+00, 0.000000000000000000e+00, 1.000000000000000000e+02
2.500000000000000000e+01, 4.504103000000000065e+03, 4.162051000000000386e+03, 4.162564000000000306e+03, 4.210769000000000233e+03, 3.967692000000000007e+03, 0.000000000000000000e+00, 0.000000000000000000e+00, 1.000000000000000000e+02
2.600000000000000000e+01, 4.514359000000000378e+03, 4.178462000000000444e+03, 4.176922999999999774e+03, 4.213332999999999629e+03, 3.974358999999999924e+03, 0.000000000000000000e+00, 0.000000000000000000e+00, 1.000000000000000000e+02
2.700000000000000000e+01, 4.513845999999999549e+03, 4.182564000000000306e+03, 4.179487000000000080e+03, 4.224614999999999782e+03, 3.969744000000000142e+03, 0.000000000000000000e+00, 0.000000000000000000e+00, 1.000000000000000000e+02
2.800000000000000000e+01, 4.503077000000000226e+03, 4.180512999999999920e+03, 4.168204999999999927e+03, 4.216922999999999774e+03, 3.950255999999999858e+03, 0.000000000000000000e+00, 0.000000000000000000e+00, 1.000000000000000000e+02
2.900000000000000000e+01, 4.501537999999999556e+03, 4.192820999999999913e+03, 4.178974000000000160e+03, 4.204614999999999782e+03, 3.944103000000000065e+03, 0.000000000000000000e+00, 0.000000000000000000e+00, 1.000000000000000000e+02
3.000000000000000000e+01, 4.505127999999999702e+03, 4.205127999999999702e+03, 4.203590000000000146e+03, 4.209230999999999767e+03, 3.950255999999999858e+03, 0.000000000000000000e+00, 0.000000000000000000e+00, 1.000000000000000000e+02
3.100000000000000000e+01, 4.501537999999999556e+03, 4.203077000000000226e+03, 4.208204999999999927e+03, 4.210256000000000313e+03, 3.946666999999999916e+03, 0.000000000000000000e+00, 0.000000000000000000e+00, 1.000000000000000000e+02
3.200000000000000000e+01, 4.508717999999999847e+03, 4.213332999999999629e+03, 4.209743999999999687e+03, 4.212307999999999993e+03, 3.945128000000000156e+03, 0.000000000000000000e+00, 0.000000000000000000e+00, 1.000000000000000000e+02
3.300000000000000000e+01, 4.514359000000000378e+03, 4.225640999999999622e+03, 4.212820999999999913e+03, 4.220000000000000000e+03, 3.930768999999999778e+03, 0.000000000000000000e+00, 0.000000000000000000e+00, 1.000000000000000000e+02
3.400000000000000000e+01, 4.500000000000000000e+03, 4.217435999999999694e+03, 4.207179000000000087e+03, 4.207692000000000007e+03, 3.909744000000000142e+03, 0.000000000000000000e+00, 0.000000000000000000e+00, 1.000000000000000000e+02
3.500000000000000000e+01, 4.478974000000000160e+03, 4.205127999999999702e+03, 4.196409999999999854e+03, 4.189230999999999767e+03, 3.898461999999999989e+03, 0.000000000000000000e+00, 0.000000000000000000e+00, 1.000000000000000000e+02
3.600000000000000000e+01, 4.471282000000000153e+03, 4.198974000000000160e+03, 4.186667000000000371e+03, 4.196922999999999774e+03, 3.891282000000000153e+03, 0.000000000000000000e+00, 0.000000000000000000e+00, 1.000000000000000000e+02
3.700000000000000000e+01, 4.487179000000000087e+03, 4.188717999999999847e+03, 4.195896999999999935e+03, 4.218974000000000160e+03, 3.904103000000000065e+03, 0.000000000000000000e+00, 0.000000000000000000e+00, 1.000000000000000000e+02
3.800000000000000000e+01, 4.490256000000000313e+03, 4.186667000000000371e+03, 4.197948999999999614e+03, 4.227692000000000007e+03, 3.910255999999999858e+03, 0.000000000000000000e+00, 0.000000000000000000e+00, 1.000000000000000000e+02
3.900000000000000000e+01, 4.471795000000000073e+03, 4.188717999999999847e+03, 4.183590000000000146e+03, 4.219487000000000080e+03, 3.896922999999999774e+03, 0.000000000000000000e+00, 0.000000000000000000e+00, 1.000000000000000000e+02
4.000000000000000000e+01, 4.471282000000000153e+03, 4.184614999999999782e+03, 4.176409999999999854e+03, 4.215896999999999935e+03, 3.888204999999999927e+03, 0.000000000000000000e+00, 0.000000000000000000e+00, 1.000000000000000000e+02
4.100000000000000000e+01, 4.489743999999999687e+03, 4.186667000000000371e+03, 4.176409999999999854e+03, 4.215385000000000218e+03, 3.883077000000000226e+03, 0.000000000000000000e+00, 0.000000000000000000e+00, 1.000000000000000000e+02
4.200000000000000000e+01, 4.513845999999999549e+03, 4.203077000000000226e+03, 4.192307999999999993e+03, 4.215385000000000218e+03, 3.895385000000000218e+03, 0.000000000000000000e+00, 0.000000000000000000e+00, 1.000000000000000000e+02
4.300000000000000000e+01, 4.537948999999999614e+03, 4.221537999999999556e+03, 4.204614999999999782e+03, 4.215896999999999935e+03, 3.912307999999999993e+03, 0.000000000000000000e+00, 0.000000000000000000e+00, 1.000000000000000000e+02
4.400000000000000000e+01, 4.565127999999999702e+03, 4.231795000000000073e+03, 4.201025999999999840e+03, 4.211282000000000153e+03, 3.923077000000000226e+03, 0.000000000000000000e+00, 0.000000000000000000e+00, 1.000000000000000000e+02
4.500000000000000000e+01, 4.607179000000000087e+03, 4.235896999999999935e+03, 4.209230999999999767e+03, 4.211282000000000153e+03, 3.954358999999999924e+03, 0.000000000000000000e+00, 0.000000000000000000e+00, 1.000000000000000000e+02
4.600000000000000000e+01, 4.645640999999999622e+03, 4.242051000000000386e+03, 4.218974000000000160e+03, 4.220000000000000000e+03, 3.995385000000000218e+03, 0.000000000000000000e+00, 0.000000000000000000e+00, 1.000000000000000000e+02
4.700000000000000000e+01, 4.678462000000000444e+03, 4.237948999999999614e+03, 4.213845999999999549e+03, 4.216922999999999774e+03, 4.026153999999999996e+03, 0.000000000000000000e+00, 0.000000000000000000e+00, 1.000000000000000000e+02
4.800000000000000000e+01, 4.715385000000000218e+03, 4.219487000000000080e+03, 4.205127999999999702e+03, 4.203590000000000146e+03, 4.045641000000000076e+03, 0.000000000000000000e+00, 0.000000000000000000e+00, 1.000000000000000000e+02
4.900000000000000000e+01, 4.750256000000000313e+03, 4.217435999999999694e+03, 4.209230999999999767e+03, 4.213332999999999629e+03, 4.071282000000000153e+03, 0.000000000000000000e+00, 0.000000000000000000e+00, 1.000000000000000000e+02
5.000000000000000000e+01, 4.778974000000000160e+03, 4.231795000000000073e+03, 4.207179000000000087e+03, 4.232307999999999993e+03, 4.100000000000000000e+03, 0.000000000000000000e+00, 0.000000000000000000e+00, 1.000000000000000000e+02
5.100000000000000000e+01, 4.789743999999999687e+03, 4.221537999999999556e+03, 4.184103000000000065e+03, 4.224614999999999782e+03, 4.107692000000000007e+03, 0.000000000000000000e+00, 0.000000000000000000e+00, 1.000000000000000000e+02
5.200000000000000000e+01, 4.793845999999999549e+03, 4.209230999999999767e+03, 4.177948999999999614e+03, 4.216409999999999854e+03, 4.115896999999999935e+03, 0.000000000000000000e+00, 0.000000000000000000e+00, 1.000000000000000000e+02
5.300000000000000000e+01, 4.804103000000000065e+03, 4.217435999999999694e+03, 4.190256000000000313e+03, 4.230769000000000233e+03, 4.128717999999999847e+03, 0.000000000000000000e+00, 0.000000000000000000e+00, 1.000000000000000000e+02
5.400000000000000000e+01, 4.811282000000000153e+03, 4.219487000000000080e+03, 4.196409999999999854e+03, 4.243077000000000226e+03, 4.129230999999999767e+03, 0.000000000000000000e+00, 0.000000000000000000e+00, 1.000000000000000000e+02
5.500000000000000000e+01, 4.804103000000000065e+03, 4.211282000000000153e+03, 4.198974000000000160e+03, 4.232307999999999993e+03, 4.122564000000000306e+03, 0.000000000000000000e+00, 0.000000000000000000e+00, 1.000000000000000000e+02
5.600000000000000000e+01, 4.783590000000000146e+03, 4.221537999999999556e+03, 4.200512999999999920e+03, 4.218974000000000160e+03, 4.110256000000000313e+03, 0.000000000000000000e+00, 0.000000000000000000e+00, 1.000000000000000000e+02
5.700000000000000000e+01, 4.771795000000000073e+03, 4.235896999999999935e+03, 4.200000000000000000e+03, 4.223590000000000146e+03, 4.104103000000000065e+03, 0.000000000000000000e+00, 0.000000000000000000e+00, 1.000000000000000000e+02
5.800000000000000000e+01, 4.758462000000000444e+03, 4.223590000000000146e+03, 4.191795000000000073e+03, 4.220000000000000000e+03, 4.088204999999999927e+03, 0.000000000000000000e+00, 0.000000000000000000e+00, 1.000000000000000000e+02
5.900000000000000000e+01, 4.735385000000000218e+03, 4.209230999999999767e+03, 4.192307999999999993e+03, 4.208204999999999927e+03, 4.071282000000000153e+03, 0.000000000000000000e+00, 0.000000000000000000e+00, 1.000000000000000000e+02
6.000000000000000000e+01, 4.726154000000000451e+03, 4.221537999999999556e+03, 4.210769000000000233e+03, 4.215385000000000218e+03, 4.076409999999999854e+03, 0.000000000000000000e+00, 0.000000000000000000e+00, 1.000000000000000000e+02
6.100000000000000000e+01, 4.718462000000000444e+03, 4.233845999999999549e+03, 4.213332999999999629e+03, 4.221025999999999840e+03, 4.077436000000000149e+03, 0.000000000000000000e+00, 0.000000000000000000e+00, 1.000000000000000000e+02
6.200000000000000000e+01, 4.713332999999999629e+03, 4.233845999999999549e+03, 4.198974000000000160e+03, 4.218462000000000444e+03, 4.077949000000000069e+03, 0.000000000000000000e+00, 0.000000000000000000e+00, 1.000000000000000000e+02
6.300000000000000000e+01, 4.699487000000000080e+03, 4.237948999999999614e+03, 4.185640999999999622e+03, 4.216409999999999854e+03, 4.074358999999999924e+03, 0.000000000000000000e+00, 0.000000000000000000e+00, 1.000000000000000000e+02
6.400000000000000000e+01, 4.660000000000000000e+03, 4.235896999999999935e+03, 4.170256000000000313e+03, 4.201537999999999556e+03, 4.051795000000000073e+03, 0.000000000000000000e+00, 0.000000000000000000e+00, 1.000000000000000000e+02
6.500000000000000000e+01, 4.626667000000000371e+03, 4.225640999999999622e+03, 4.166154000000000451e+03, 4.191282000000000153e+03, 4.047179000000000087e+03, 0.000000000000000000e+00, 0.000000000000000000e+00, 1.000000000000000000e+02
6.600000000000000000e+01, 4.606154000000000451e+03, 4.215385000000000218e+03, 4.161025999999999840e+03, 4.196922999999999774e+03, 4.045128000000000156e+03, 0.000000000000000000e+00, 0.000000000000000000e+00, 1.000000000000000000e+02
6.700000000000000000e+01, 4.586154000000000451e+03, 4.211282000000000153e+03, 4.161537999999999556e+03, 4.197948999999999614e+03, 4.030768999999999778e+03, 0.000000000000000000e+00, 0.000000000000000000e+00, 1.000000000000000000e+02
6.800000000000000000e+01, 4.567692000000000007e+03, 4.213332999999999629e+03, 4.181537999999999556e+03, 4.198462000000000444e+03, 4.029744000000000142e+03, 0.000000000000000000e+00, 0.000000000000000000e+00, 1.000000000000000000e+02
6.900000000000000000e+01, 4.558462000000000444e+03, 4.217435999999999694e+03, 4.194359000000000378e+03, 4.206154000000000451e+03, 4.029744000000000142e+03, 0.000000000000000000e+00, 0.000000000000000000e+00, 1.000000000000000000e+02
7.000000000000000000e+01, 4.555896999999999935e+03, 4.211282000000000153e+03, 4.192307999999999993e+03, 4.213332999999999629e+03, 4.023590000000000146e+03, 0.000000000000000000e+00, 0.000000000000000000e+00, 1.000000000000000000e+02
7.100000000000000000e+01, 4.547179000000000087e+03, 4.215385000000000218e+03, 4.186667000000000371e+03, 4.206667000000000371e+03, 4.018461999999999989e+03, 0.000000000000000000e+00, 0.000000000000000000e+00, 1.000000000000000000e+02
7.200000000000000000e+01, 4.540512999999999920e+03, 4.227692000000000007e+03, 4.190769000000000233e+03, 4.205127999999999702e+03, 4.029744000000000142e+03, 0.000000000000000000e+00, 0.000000000000000000e+00, 1.000000000000000000e+02
7.300000000000000000e+01, 4.540000000000000000e+03, 4.229743999999999687e+03, 4.202051000000000386e+03, 4.220000000000000000e+03, 4.042050999999999931e+03, 0.000000000000000000e+00, 0.000000000000000000e+00, 1.000000000000000000e+02
7.400000000000000000e+01, 4.527179000000000087e+03, 4.215385000000000218e+03, 4.194359000000000378e+03, 4.222051000000000386e+03, 4.022563999999999851e+03, 0.000000000000000000e+00, 0.000000000000000000e+00, 1.000000000000000000e+02
7.500000000000000000e+01, 4.504103000000000065e+03, 4.201025999999999840e+03, 4.183077000000000226e+03, 4.208204999999999927e+03, 3.997949000000000069e+03, 0.000000000000000000e+00, 0.000000000000000000e+00, 1.000000000000000000e+02
7.600000000000000000e+01, 4.488717999999999847e+03, 4.196922999999999774e+03, 4.177435999999999694e+03, 4.195385000000000218e+03, 3.991282000000000153e+03, 0.000000000000000000e+00, 0.000000000000000000e+00, 1.000000000000000000e+02
7.700000000000000000e+01, 4.485640999999999622e+03, 4.196922999999999774e+03, 4.172307999999999993e+03, 4.192307999999999993e+03, 3.995896999999999935e+03, 0.000000000000000000e+00, 0.000000000000000000e+00, 1.000000000000000000e+02
7.800000000000000000e+01, 4.480000000000000000e+03, 4.196922999999999774e+03, 4.166154000000000451e+03, 4.191282000000000153e+03, 3.995896999999999935e+03, 0.000000000000000000e+00, 0.000000000000000000e+00, 1.000000000000000000e+02
7.900000000000000000e+01, 4.461537999999999556e+03, 4.201025999999999840e+03, 4.157435999999999694e+03, 4.185127999999999702e+03, 3.982563999999999851e+03, 0.000000000000000000e+00, 0.000000000000000000e+00, 1.000000000000000000e+02
8.000000000000000000e+01, 4.446667000000000371e+03, 4.196922999999999774e+03, 4.165640999999999622e+03, 4.184103000000000065e+03, 3.982563999999999851e+03, 0.000000000000000000e+00, 0.000000000000000000e+00, 1.000000000000000000e+02
8.100000000000000000e+01, 4.435385000000000218e+03, 4.194872000000000298e+03, 4.177948999999999614e+03, 4.186154000000000451e+03, 3.982050999999999931e+03, 0.000000000000000000e+00, 0.000000000000000000e+00, 1.000000000000000000e+02
8.200000000000000000e+01, 4.423077000000000226e+03, 4.196922999999999774e+03, 4.181537999999999556e+03, 4.189230999999999767e+03, 3.972820999999999913e+03, 0.000000000000000000e+00, 0.000000000000000000e+00, 1.000000000000000000e+02
8.300000000000000000e+01, 4.418974000000000160e+03, 4.192820999999999913e+03, 4.183077000000000226e+03, 4.193332999999999629e+03, 3.974871999999999844e+03, 0.000000000000000000e+00, 0.000000000000000000e+00, 1.000000000000000000e+02
8.400000000000000000e+01, 4.414872000000000298e+03, 4.182564000000000306e+03, 4.176922999999999774e+03, 4.189230999999999767e+03, 3.978974000000000160e+03, 0.000000000000000000e+00, 0.000000000000000000e+00, 1.000000000000000000e+02
8.500000000000000000e+01, 4.417435999999999694e+03, 4.184614999999999782e+03, 4.174359000000000378e+03, 4.181537999999999556e+03, 3.987179000000000087e+03, 0.000000000000000000e+00, 0.000000000000000000e+00, 1.000000000000000000e+02
8.600000000000000000e+01, 4.423590000000000146e+03, 4.194872000000000298e+03, 4.173845999999999549e+03, 4.181537999999999556e+03, 3.989744000000000142e+03, 0.000000000000000000e+00, 0.000000000000000000e+00, 1.000000000000000000e+02
8.700000000000000000e+01, 4.427692000000000007e+03, 4.198974000000000160e+03, 4.175896999999999935e+03, 4.189230999999999767e+03, 3.996922999999999774e+03, 0.000000000000000000e+00, 0.000000000000000000e+00, 1.000000000000000000e+02
8.800000000000000000e+01, 4.432307999999999993e+03, 4.194872000000000298e+03, 4.184614999999999782e+03, 4.193845999999999549e+03, 4.016922999999999774e+03, 0.000000000000000000e+00, 0.000000000000000000e+00, 1.000000000000000000e+02
8.900000000000000000e+01, 4.427692000000000007e+03, 4.198974000000000160e+03, 4.174872000000000298e+03, 4.187692000000000007e+03, 4.014871999999999844e+03, 0.000000000000000000e+00, 0.000000000000000000e+00, 1.000000000000000000e+02
9.000000000000000000e+01, 4.431795000000000073e+03, 4.211282000000000153e+03, 4.168204999999999927e+03, 4.182564000000000306e+03, 4.017436000000000149e+03, 0.000000000000000000e+00, 0.000000000000000000e+00, 1.000000000000000000e+02
9.100000000000000000e+01, 4.436409999999999854e+03, 4.209230999999999767e+03, 4.178974000000000160e+03, 4.181025999999999840e+03, 4.030255999999999858e+03, 0.000000000000000000e+00, 0.000000000000000000e+00, 1.000000000000000000e+02
9.200000000000000000e+01, 4.422051000000000386e+03, 4.203077000000000226e+03, 4.179487000000000080e+03, 4.181025999999999840e+03, 4.023077000000000226e+03, 0.000000000000000000e+00, 0.000000000000000000e+00, 1.000000000000000000e+02
9.300000000000000000e+01, 4.417948999999999614e+03, 4.213332999999999629e+03, 4.175385000000000218e+03, 4.186154000000000451e+03, 4.024103000000000065e+03, 0.000000000000000000e+00, 0.000000000000000000e+00, 1.000000000000000000e+02
9.400000000000000000e+01, 4.426154000000000451e+03, 4.227692000000000007e+03, 4.175896999999999935e+03, 4.187179000000000087e+03, 4.041025999999999840e+03, 0.000000000000000000e+00, 0.000000000000000000e+00, 1.000000000000000000e+02
9.500000000000000000e+01, 4.434872000000000298e+03, 4.225640999999999622e+03, 4.181537999999999556e+03, 4.184614999999999782e+03, 4.057949000000000069e+03, 0.000000000000000000e+00, 0.000000000000000000e+00, 1.000000000000000000e+02
9.600000000000000000e+01, 4.438974000000000160e+03, 4.221537999999999556e+03, 4.184614999999999782e+03, 4.188717999999999847e+03, 4.064614999999999782e+03, 0.000000000000000000e+00, 0.000000000000000000e+00, 1.000000000000000000e+02
9.700000000000000000e+01, 4.430769000000000233e+03, 4.227692000000000007e+03, 4.188717999999999847e+03, 4.193332999999999629e+03, 4.061025999999999840e+03, 0.000000000000000000e+00, 0.000000000000000000e+00, 1.000000000000000000e+02
9.800000000000000000e+01, 4.424103000000000065e+03, 4.221537999999999556e+03, 4.193332999999999629e+03, 4.185127999999999702e+03, 4.064614999999999782e+03, 0.000000000000000000e+00, 0.000000000000000000e+00, 1.000000000000000000e+02
9.900000000000000000e+01, 4.423077000000000226e+03, 4.219487000000000080e+03, 4.184103000000000065e+03, 4.176409999999999854e+03, 4.070768999999999778e+03, 0.000000000000000000e+00, 0.000000000000000000e+00, 1.000000000000000000e+02
1.000000000000000000e+02, 4.425640999999999622e+03, 4.223590000000000146e+03, 4.182051000000000386e+03, 4.182564000000000306e+03, 4.081025999999999840e+03, 0.000000000000000000e+00, 0.000000000000000000e+00, 1.000000000000000000e+02
1.010000000000000000e+02, 4.428717999999999847e+03, 4.225640999999999622e+03, 4.184614999999999782e+03, 4.184614999999999782e+03, 4.087692000000000007e+03, 0.000000000000000000e+00, 0.000000000000000000e+00, 1.000000000000000000e+02
1.020000000000000000e+02, 4.429743999999999687e+03, 4.223590000000000146e+03, 4.172820999999999913e+03, 4.180512999999999920e+03, 4.091282000000000153e+03, 0.000000000000000000e+00, 0.000000000000000000e+00, 1.000000000000000000e+02
1.030000000000000000e+02, 4.437435999999999694e+03, 4.227692000000000007e+03, 4.169743999999999687e+03, 4.185127999999999702e+03, 4.114359000000000378e+03, 0.000000000000000000e+00, 0.000000000000000000e+00, 1.000000000000000000e+02
1.040000000000000000e+02, 4.437948999999999614e+03, 4.225640999999999622e+03, 4.173332999999999629e+03, 4.185640999999999622e+03, 4.128204999999999927e+03, 0.000000000000000000e+00, 0.000000000000000000e+00, 1.000000000000000000e+02
1.050000000000000000e+02, 4.432307999999999993e+03, 4.217435999999999694e+03, 4.171795000000000073e+03, 4.182051000000000386e+03, 4.128204999999999927e+03, 0.000000000000000000e+00, 0.000000000000000000e+00, 1.000000000000000000e+02
1.060000000000000000e+02, 4.430256000000000313e+03, 4.217435999999999694e+03, 4.168717999999999847e+03, 4.185640999999999622e+03, 4.134872000000000298e+03, 0.000000000000000000e+00, 0.000000000000000000e+00, 1.000000000000000000e+02
1.070000000000000000e+02, 4.417435999999999694e+03, 4.219487000000000080e+03, 4.165640999999999622e+03, 4.182051000000000386e+03, 4.130769000000000233e+03, 0.000000000000000000e+00, 0.000000000000000000e+00, 1.000000000000000000e+02
1.080000000000000000e+02, 4.414872000000000298e+03, 4.221537999999999556e+03, 4.175385000000000218e+03, 4.177435999999999694e+03, 4.130256000000000313e+03, 0.000000000000000000e+00, 0.000000000000000000e+00, 1.000000000000000000e+02
1.090000000000000000e+02, 4.433332999999999629e+03, 4.231795000000000073e+03, 4.183077000000000226e+03, 4.183077000000000226e+03, 4.149230999999999767e+03, 0.000000000000000000e+00, 0.000000000000000000e+00, 1.000000000000000000e+02
1.100000000000000000e+02, 4.447692000000000007e+03, 4.235896999999999935e+03, 4.186154000000000451e+03, 4.183590000000000146e+03, 4.174872000000000298e+03, 0.000000000000000000e+00, 0.000000000000000000e+00, 1.000000000000000000e+02
1.110000000000000000e+02, 4.444614999999999782e+03, 4.233845999999999549e+03, 4.196409999999999854e+03, 4.178974000000000160e+03, 4.181537999999999556e+03, 0.000000000000000000e+00, 0.000000000000000000e+00, 1.000000000000000000e+02
1.120000000000000000e+02, 4.435896999999999935e+03, 4.237948999999999614e+03, 4.200000000000000000e+03, 4.184103000000000065e+03, 4.171795000000000073e+03, 0.000000000000000000e+00, 0.000000000000000000e+00, 1.000000000000000000e+02
1.130000000000000000e+02, 4.438462000000000444e+03, 4.244103000000000065e+03, 4.198462000000000444e+03, 4.196922999999999774e+03, 4.185127999999999702e+03, 0.000000000000000000e+00, 0.000000000000000000e+00, 1.000000000000000000e+02
1.140000000000000000e+02, 4.442051000000000386e+03, 4.237948999999999614e+03, 4.184103000000000065e+03, 4.192820999999999913e+03, 4.202051000000000386e+03, 0.000000000000000000e+00, 0.000000000000000000e+00, 1.000000000000000000e+02
1.150000000000000000e+02, 4.444103000000000065e+03, 4.227692000000000007e+03, 4.166154000000000451e+03, 4.178974000000000160e+03, 4.204614999999999782e+03, 0.000000000000000000e+00, 0.000000000000000000e+00, 1.000000000000000000e+02
1.160000000000000000e+02, 4.447692000000000007e+03, 4.223590000000000146e+03, 4.165640999999999622e+03, 4.182051000000000386e+03, 4.213845999999999549e+03, 0.000000000000000000e+00, 0.000000000000000000e+00, 1.000000000000000000e+02
1.170000000000000000e+02, 4.447179000000000087e+03, 4.237948999999999614e+03, 4.171795000000000073e+03, 4.190256000000000313e+03, 4.222051000000000386e+03, 0.000000000000000000e+00, 0.000000000000000000e+00, 1.000000000000000000e+02
1.180000000000000000e+02, 4.452307999999999993e+03, 4.248204999999999927e+03, 4.176409999999999854e+03, 4.194872000000000298e+03, 4.227179000000000087e+03, 0.000000000000000000e+00, 0.000000000000000000e+00, 1.000000000000000000e+02
1.190000000000000000e+02, 4.447692000000000007e+03, 4.233845999999999549e+03, 4.174359000000000378e+03, 4.187692000000000007e+03, 4.221025999999999840e+03, 0.000000000000000000e+00, 0.000000000000000000e+00, 1.000000000000000000e+02
1.200000000000000000e+02, 4.430256000000000313e+03, 4.217435999999999694e+03, 4.171282000000000153e+03, 4.172820999999999913e+03, 4.217435999999999694e+03, 0.000000000000000000e+00, 0.000000000000000000e+00, 1.000000000000000000e+02
1.210000000000000000e+02, 4.427692000000000007e+03, 4.217435999999999694e+03, 4.174872000000000298e+03, 4.174359000000000378e+03, 4.231282000000000153e+03, 0.000000000000000000e+00, 0.000000000000000000e+00, 1.000000000000000000e+02
1.220000000000000000e+02, 4.427179000000000087e+03, 4.225640999999999622e+03, 4.177435999999999694e+03, 4.181537999999999556e+03, 4.237948999999999614e+03, 0.000000000000000000e+00, 0.000000000000000000e+00, 1.000000000000000000e+02
1.230000000000000000e+02, 4.430769000000000233e+03, 4.227692000000000007e+03, 4.185640999999999622e+03, 4.178974000000000160e+03, 4.253332999999999629e+03, 0.000000000000000000e+00, 0.000000000000000000e+00, 1.000000000000000000e+02
1.240000000000000000e+02, 4.446154000000000451e+03, 4.219487000000000080e+03, 4.192307999999999993e+03, 4.179487000000000080e+03, 4.272307999999999993e+03, 0.000000000000000000e+00, 0.000000000000000000e+00, 1.000000000000000000e+02
1.250000000000000000e+02, 4.452820999999999913e+03, 4.223590000000000146e+03, 4.188204999999999927e+03, 4.186154000000000451e+03, 4.268717999999999847e+03, 0.000000000000000000e+00, 0.000000000000000000e+00, 1.000000000000000000e+02
1.260000000000000000e+02, 4.449230999999999767e+03, 4.237948999999999614e+03, 4.183077000000000226e+03, 4.189230999999999767e+03, 4.265640999999999622e+03, 0.000000000000000000e+00, 1.000000000000000000e+00, 1.000000000000000000e+02
1.270000000000000000e+02, 4.450769000000000233e+03, 4.231795000000000073e+03, 4.172307999999999993e+03, 4.190256000000000313e+03, 4.274359000000000378e+03, 0.000000000000000000e+00, 1.000000000000000000e+00, 1.000000000000000000e+02
0.000000000000000000e+00, 4.455896999999999935e+03, 4.215385000000000218e+03, 4.160000000000000000e+03, 4.187179000000000087e+03, 4.284614999999999782e+03, 0.000000000000000000e+00, 1.000000000000000000e+00, 1.000000000000000000e+02
1.000000000000000000e+00, 4.443590000000000146e+03, 4.219487000000000080e+03, 4.154872000000000298e+03, 4.166667000000000371e+03, 4.275385000000000218e+03, 0.000000000000000000e+00, 1.000000000000000000e+00, 1.000000000000000000e+02
2.000000000000000000e+00, 4.433845999999999549e+03, 4.229743999999999687e+03, 4.161025999999999840e+03, 4.158974000000000160e+03, 4.270769000000000233e+03, 0.000000000000000000e+00, 1.000000000000000000e+00, 1.000000000000000000e+02
3.000000000000000000e+00, 4.450769000000000233e+03, 4.229743999999999687e+03, 4.177948999999999614e+03, 4.188717999999999847e+03, 4.297948999999999614e+03, 0.000000000000000000e+00, 1.000000000000000000e+00, 1.000000000000000000e+02
4.000000000000000000e+00, 4.452307999999999993e+03, 4.231795000000000073e+03, 4.174359000000000378e+03, 4.201025999999999840e+03, 4.306154000000000451e+03, 0.000000000000000000e+00, 1.000000000000000000e+00, 1.000000000000000000e+02
5.000000000000000000e+00, 4.433332999999999629e+03, 4.231795000000000073e+03, 4.164614999999999782e+03, 4.186154000000000451e+03, 4.293332999999999629e+03, 0.000000000000000000e+00, 1.000000000000000000e+00, 1.000000000000000000e+02
6.000000000000000000e+00, 4.426667000000000371e+03, 4.229743999999999687e+03, 4.177948999999999614e+03, 4.187179000000000087e+03, 4.298462000000000444e+03, 0.000000000000000000e+00, 1.000000000000000000e+00, 1.000000000000000000e+02
7.000000000000000000e+00, 4.428717999999999847e+03, 4.229743999999999687e+03, 4.186154000000000451e+03, 4.191795000000000073e+03, 4.303590000000000146e+03, 0.000000000000000000e+00, 1.000000000000000000e+00, 1.000000000000000000e+02
8.000000000000000000e+00, 4.431795000000000073e+03, 4.229743999999999687e+03, 4.182051000000000386e+03, 4.183077000000000226e+03, 4.304614999999999782e+03, 0.000000000000000000e+00, 1.000000000000000000e+00, 1.000000000000000000e+02
9.000000000000000000e+00, 4.426667000000000371e+03, 4.231795000000000073e+03, 4.174872000000000298e+03, 4.180512999999999920e+03, 4.303590000000000146e+03, 0.000000000000000000e+00, 1.000000000000000000e+00, 1.000000000000000000e+02
1.000000000000000000e+01, 4.424614999999999782e+03, 4.231795000000000073e+03, 4.173845999999999549e+03, 4.191795000000000073e+03, 4.311795000000000073e+03, 0.000000000000000000e+00, 1.000000000000000000e+00, 1.000000000000000000e+02
1.100000000000000000e+01, 4.429230999999999767e+03, 4.233845999999999549e+03, 4.180512999999999920e+03, 4.195896999999999935e+03, 4.322564000000000306e+03, 0.000000000000000000e+00, 1.000000000000000000e+00, 1.000000000000000000e+02
1.200000000000000000e+01, 4.418974000000000160e+03, 4.233845999999999549e+03, 4.176922999999999774e+03, 4.186667000000000371e+03, 4.315385000000000218e+03, 0.000000000000000000e+00, 1.000000000000000000e+00, 1.000000000000000000e+02
1.300000000000000000e+01, 4.406154000000000451e+03, 4.227692000000000007e+03, 4.169743999999999687e+03, 4.178974000000000160e+03, 4.309743999999999687e+03, 0.000000000000000000e+00, 1.000000000000000000e+00, 1.000000000000000000e+02
1.400000000000000000e+01, 4.401537999999999556e+03, 4.225640999999999622e+03, 4.165127999999999702e+03, 4.173845999999999549e+03, 4.303077000000000226e+03, 0.000000000000000000e+00, 1.000000000000000000e+00, 1.000000000000000000e+02
1.500000000000000000e+01, 4.397948999999999614e+03, 4.229743999999999687e+03, 4.168204999999999927e+03, 4.168717999999999847e+03, 4.292307999999999993e+03, 0.000000000000000000e+00, 1.000000000000000000e+00, 1.000000000000000000e+02
1.600000000000000000e+01, 4.390769000000000233e+03, 4.219487000000000080e+03, 4.170769000000000233e+03, 4.167692000000000007e+03, 4.282564000000000306e+03, 0.000000000000000000e+00, 1.000000000000000000e+00, 1.000000000000000000e+02
1.700000000000000000e+01, 4.381537999999999556e+03, 4.211282000000000153e+03, 4.166154000000000451e+03, 4.175385000000000218e+03, 4.271282000000000153e+03, 0.000000000000000000e+00, 1.000000000000000000e+00, 1.000000000000000000e+02
1.800000000000000000e+01, 4.374872000000000298e+03, 4.219487000000000080e+03, 4.168204999999999927e+03, 4.181025999999999840e+03, 4.271282000000000153e+03, 0.000000000000000000e+00, 1.000000000000000000e+00, 1.000000000000000000e+02
1.900000000000000000e+01, 4.363590000000000146e+03, 4.211282000000000153e+03, 4.164614999999999782e+03, 4.171282000000000153e+03, 4.266667000000000371e+03, 0.000000000000000000e+00, 1.000000000000000000e+00, 1.000000000000000000e+02
2.000000000000000000e+01, 4.358462000000000444e+03, 4.201025999999999840e+03, 4.167179000000000087e+03, 4.164614999999999782e+03, 4.268717999999999847e+03, 0.000000000000000000e+00, 1.000000000000000000e+00, 1.000000000000000000e+02
2.100000000000000000e+01, 4.365127999999999702e+03, 4.223590000000000146e+03, 4.182564000000000306e+03, 4.178974000000000160e+03, 4.285640999999999622e+03, 0.000000000000000000e+00, 1.000000000000000000e+00, 1.000000000000000000e+02
2.200000000000000000e+01, 4.358974000000000160e+03, 4.233845999999999549e+03, 4.177948999999999614e+03, 4.190769000000000233e+03, 4.283077000000000226e+03, 0.000000000000000000e+00, 1.000000000000000000e+00, 1.000000000000000000e+02
2.300000000000000000e+01, 4.350256000000000313e+03, 4.215385000000000218e+03, 4.167692000000000007e+03, 4.183077000000000226e+03, 4.270256000000000313e+03, 0.000000000000000000e+00, 1.000000000000000000e+00, 1.000000000000000000e+02
2.400000000000000000e+01, 4.345640999999999622e+03, 4.211282000000000153e+03, 4.169230999999999767e+03, 4.172820999999999913e+03, 4.262051000000000386e+03, 0.000000000000000000e+00, 1.000000000000000000e+00, 1.000000000000000000e+02
2.500000000000000000e+01, 4.337948999999999614e+03, 4.217435999999999694e+03, 4.172820999999999913e+03, 4.177435999999999694e+03, 4.258974000000000160e+03, 0.000000000000000000e+00, 1.000000000000000000e+00, 1.000000000000000000e+02
2.600000000000000000e+01, 4.342564000000000306e+03, 4.219487000000000080e+03, 4.176409999999999854e+03, 4.187179000000000087e+03, 4.272307999999999993e+03, 0.000000000000000000e+00, 1.000000000000000000e+00, 1.000000000000000000e+02
2.700000000000000000e+01, 4.337948999999999614e+03, 4.215385000000000218e+03, 4.173845999999999549e+03, 4.178974000000000160e+03, 4.273332999999999629e+03, 0.000000000000000000e+00, 1.000000000000000000e+00, 1.000000000000000000e+02
2.800000000000000000e+01, 4.318462000000000444e+03, 4.211282000000000153e+03, 4.179487000000000080e+03, 4.178462000000000444e+03, 4.258974000000000160e+03, 0.000000000000000000e+00, 1.000000000000000000e+00, 1.000000000000000000e+02
2.900000000000000000e+01, 4.312820999999999913e+03, 4.211282000000000153e+03, 4.184614999999999782e+03, 4.187692000000000007e+03, 4.245640999999999622e+03, 0.000000000000000000e+00, 1.000000000000000000e+00, 1.000000000000000000e+02
3.000000000000000000e+01, 4.326667000000000371e+03, 4.213332999999999629e+03, 4.176409999999999854e+03, 4.187692000000000007e+03, 4.246667000000000371e+03, 0.000000000000000000e+00, 1.000000000000000000e+00, 1.000000000000000000e+02
3.100000000000000000e+01, 4.344614999999999782e+03, 4.213332999999999629e+03, 4.175385000000000218e+03, 4.193845999999999549e+03, 4.263077000000000226e+03, 0.000000000000000000e+00, 1.000000000000000000e+00, 1.000000000000000000e+02
3.200000000000000000e+01, 4.345640999999999622e+03, 4.213332999999999629e+03, 4.166667000000000371e+03, 4.194359000000000378e+03, 4.260000000000000000e+03, 0.000000000000000000e+00, 1.000000000000000000e+00, 1.000000000000000000e+02
3.300000000000000000e+01, 4.344614999999999782e+03, 4.203077000000000226e+03, 4.153332999999999629e+03, 4.181025999999999840e+03, 4.255896999999999935e+03, 0.000000000000000000e+00, 1.000000000000000000e+00, 1.000000000000000000e+02
3.400000000000000000e+01, 4.343077000000000226e+03, 4.190769000000000233e+03, 4.150769000000000233e+03, 4.173332999999999629e+03, 4.257435999999999694e+03, 0.000000000000000000e+00, 1.000000000000000000e+00, 1.000000000000000000e+02
3.500000000000000000e+01, 4.323077000000000226e+03, 4.194872000000000298e+03, 4.147692000000000007e+03, 4.174872000000000298e+03, 4.238974000000000160e+03, 0.000000000000000000e+00, 1.000000000000000000e+00, 1.000000000000000000e+02
3.600000000000000000e+01, 4.300000000000000000e+03, 4.198974000000000160e+03, 4.144103000000000065e+03, 4.168204999999999927e+03, 4.211795000000000073e+03, 0.000000000000000000e+00, 1.000000000000000000e+00, 1.000000000000000000e+02
3.700000000000000000e+01, 4.285127999999999702e+03, 4.190769000000000233e+03, 4.143077000000000226e+03, 4.158974000000000160e+03, 4.186667000000000371e+03, 0.000000000000000000e+00, 1.000000000000000000e+00, 1.000000000000000000e+02
3.800000000000000000e+01, 4.277948999999999614e+03, 4.188717999999999847e+03, 4.154359000000000378e+03, 4.167179000000000087e+03, 4.185127999999999702e+03, 0.000000000000000000e+00, 1.000000000000000000e+00, 1.000000000000000000e+02
3.900000000000000000e+01, 4.269230999999999767e+03, 4.201025999999999840e+03, 4.167179000000000087e+03, 4.177435999999999694e+03, 4.190769000000000233e+03, 0.000000000000000000e+00, 1.000000000000000000e+00, 1.000000000000000000e+02
4.000000000000000000e+01, 4.258974000000000160e+03, 4.207179000000000087e+03, 4.167692000000000007e+03, 4.178974000000000160e+03, 4.180000000000000000e+03, 0.000000000000000000e+00, 1.000000000000000000e+00, 1.000000000000000000e+02
4.100000000000000000e+01, 4.251282000000000153e+03, 4.207179000000000087e+03, 4.171282000000000153e+03, 4.174359000000000378e+03, 4.168717999999999847e+03, 0.000000000000000000e+00, 1.000000000000000000e+00, 1.000000000000000000e+02
4.200000000000000000e+01, 4.237435999999999694e+03, 4.215385000000000218e+03, 4.179487000000000080e+03, 4.173845999999999549e+03, 4.152307999999999993e+03, 0.000000000000000000e+00, 1.000000000000000000e+00, 1.000000000000000000e+02
4.300000000000000000e+01, 4.225640999999999622e+03, 4.225640999999999622e+03, 4.189743999999999687e+03, 4.185640999999999622e+03, 4.137435999999999694e+03, 0.000000000000000000e+00, 1.000000000000000000e+00, 1.000000000000000000e+02
4.400000000000000000e+01, 4.214872000000000298e+03, 4.223590000000000146e+03, 4.187692000000000007e+03, 4.189230999999999767e+03, 4.120512999999999920e+03, 0.000000000000000000e+00, 1.000000000000000000e+00, 1.000000000000000000e+02
4.500000000000000000e+01, 4.201537999999999556e+03, 4.215385000000000218e+03, 4.171795000000000073e+03, 4.174359000000000378e+03, 4.101537999999999556e+03, 0.000000000000000000e+00, 1.000000000000000000e+00, 1.000000000000000000e+02
4.600000000000000000e+01, 4.195385000000000218e+03, 4.213332999999999629e+03, 4.160000000000000000e+03, 4.165640999999999622e+03, 4.091795000000000073e+03, 0.000000000000000000e+00, 1.000000000000000000e+00, 1.000000000000000000e+02
4.700000000000000000e+01, 4.176922999999999774e+03, 4.217435999999999694e+03, 4.136922999999999774e+03, 4.172820999999999913e+03, 4.064103000000000065e+03, 0.000000000000000000e+00, 1.000000000000000000e+00, 1.000000000000000000e+02
4.800000000000000000e+01, 4.157435999999999694e+03, 4.211282000000000153e+03, 4.118974000000000160e+03, 4.172307999999999993e+03, 4.042563999999999851e+03, 0.000000000000000000e+00, 1.000000000000000000e+00, 1.000000000000000000e+02
4.900000000000000000e+01, 4.155896999999999935e+03, 4.213332999999999629e+03, 4.131795000000000073e+03, 4.161025999999999840e+03, 4.044614999999999782e+03, 0.000000000000000000e+00, 1.000000000000000000e+00, 1.000000000000000000e+02
5.000000000000000000e+01, 4.150769000000000233e+03, 4.225640999999999622e+03, 4.149743999999999687e+03, 4.168717999999999847e+03, 4.032307999999999993e+03, 0.000000000000000000e+00, 1.000000000000000000e+00, 1.000000000000000000e+02
5.100000000000000000e+01, 4.141025999999999840e+03, 4.233845999999999549e+03, 4.163077000000000226e+03, 4.192820999999999913e+03, 4.016409999999999854e+03, 0.000000000000000000e+00, 1.000000000000000000e+00, 1.000000000000000000e+02
5.200000000000000000e+01, 4.129230999999999767e+03, 4.233845999999999549e+03, 4.174872000000000298e+03, 4.196922999999999774e+03, 4.001538000000000011e+03, 0.000000000000000000e+00, 1.000000000000000000e+00, 1.000000000000000000e+02
5.300000000000000000e+01, 4.118974000000000160e+03, 4.229743999999999687e+03, 4.183077000000000226e+03, 4.189743999999999687e+03, 3.982050999999999931e+03, 0.000000000000000000e+00, 1.000000000000000000e+00, 1.000000000000000000e+02
5.400000000000000000e+01, 4.116409999999999854e+03, 4.229743999999999687e+03, 4.188204999999999927e+03, 4.197948999999999614e+03, 3.974871999999999844e+03, 0.000000000000000000e+00, 1.000000000000000000e+00, 1.000000000000000000e+02
5.500000000000000000e+01, 4.109743999999999687e+03, 4.235896999999999935e+03, 4.189230999999999767e+03, 4.203077000000000226e+03, 3.971795000000000073e+03, 0.000000000000000000e+00, 1.000000000000000000e+00, 1.000000000000000000e+02
5.600000000000000000e+01, 4.102051000000000386e+03, 4.240000000000000000e+03, 4.188204999999999927e+03, 4.195896999999999935e+03, 3.958461999999999989e+03, 0.000000000000000000e+00, 1.000000000000000000e+00, 1.000000000000000000e+02
5.700000000000000000e+01, 4.091282000000000153e+03, 4.233845999999999549e+03, 4.171795000000000073e+03, 4.186154000000000451e+03, 3.925128000000000156e+03, 0.000000000000000000e+00, 1.000000000000000000e+00, 1.000000000000000000e+02
5.800000000000000000e+01, 4.082050999999999931e+03, 4.225640999999999622e+03, 4.164614999999999782e+03, 4.184103000000000065e+03, 3.895385000000000218e+03, 0.000000000000000000e+00, 1.000000000000000000e+00, 1.000000000000000000e+02
5.900000000000000000e+01, 4.066666999999999916e+03, 4.229743999999999687e+03, 4.173845999999999549e+03, 4.194872000000000298e+03, 3.881538000000000011e+03, 0.000000000000000000e+00, 1.000000000000000000e+00, 1.000000000000000000e+02
6.000000000000000000e+01, 4.034871999999999844e+03, 4.227692000000000007e+03, 4.160512999999999920e+03, 4.182564000000000306e+03, 3.854871999999999844e+03, 0.000000000000000000e+00, 1.000000000000000000e+00, 1.000000000000000000e+02
6.100000000000000000e+01, 4.019487000000000080e+03, 4.215385000000000218e+03, 4.144614999999999782e+03, 4.166154000000000451e+03, 3.831795000000000073e+03, 0.000000000000000000e+00, 1.000000000000000000e+00, 1.000000000000000000e+02
6.200000000000000000e+01, 4.015896999999999935e+03, 4.211282000000000153e+03, 4.136922999999999774e+03, 4.170256000000000313e+03, 3.813846000000000004e+03, 0.000000000000000000e+00, 1.000000000000000000e+00, 1.000000000000000000e+02
6.300000000000000000e+01, 4.000512999999999920e+03, 4.215385000000000218e+03, 4.126667000000000371e+03, 4.168717999999999847e+03, 3.791282000000000153e+03, 0.000000000000000000e+00, 1.000000000000000000e+00, 1.000000000000000000e+02
6.400000000000000000e+01, 3.991795000000000073e+03, 4.215385000000000218e+03, 4.135896999999999935e+03, 4.163590000000000146e+03, 3.778461999999999989e+03, 0.000000000000000000e+00, 1.000000000000000000e+00, 1.000000000000000000e+02
6.500000000000000000e+01, 3.988717999999999847e+03, 4.217435999999999694e+03, 4.156922999999999774e+03, 4.175385000000000218e+03, 3.765128000000000156e+03, 0.000000000000000000e+00, 1.000000000000000000e+00, 1.000000000000000000e+02
6.600000000000000000e+01, 3.989744000000000142e+03, 4.227692000000000007e+03, 4.170769000000000233e+03, 4.190256000000000313e+03, 3.753333000000000084e+03, 0.000000000000000000e+00, 1.000000000000000000e+00, 1.000000000000000000e+02
6.700000000000000000e+01, 3.996922999999999774e+03, 4.231795000000000073e+03, 4.175385000000000218e+03, 4.182051000000000386e+03, 3.744614999999999782e+03, 0.000000000000000000e+00, 1.000000000000000000e+00, 1.000000000000000000e+02
6.800000000000000000e+01, 3.998461999999999989e+03, 4.229743999999999687e+03, 4.182051000000000386e+03, 4.180512999999999920e+03, 3.741538000000000011e+03, 0.000000000000000000e+00, 1.000000000000000000e+00, 1.000000000000000000e+02
6.900000000000000000e+01, 3.994358999999999924e+03, 4.229743999999999687e+03, 4.193845999999999549e+03, 4.196409999999999854e+03, 3.743077000000000226e+03, 0.000000000000000000e+00, 1.000000000000000000e+00, 1.000000000000000000e+02
7.000000000000000000e+01, 3.980512999999999920e+03, 4.229743999999999687e+03, 4.192820999999999913e+03, 4.199487000000000080e+03, 3.724614999999999782e+03, 0.000000000000000000e+00, 1.000000000000000000e+00, 1.000000000000000000e+02
7.100000000000000000e+01, 3.969744000000000142e+03, 4.229743999999999687e+03, 4.189230999999999767e+03, 4.194359000000000378e+03, 3.706153999999999996e+03, 0.000000000000000000e+00, 1.000000000000000000e+00, 1.000000000000000000e+02
7.200000000000000000e+01, 3.963590000000000146e+03, 4.229743999999999687e+03, 4.182564000000000306e+03, 4.185127999999999702e+03, 3.695896999999999935e+03, 0.000000000000000000e+00, 1.000000000000000000e+00, 1.000000000000000000e+02
7.300000000000000000e+01, 3.953333000000000084e+03, 4.231795000000000073e+03, 4.169743999999999687e+03, 4.181537999999999556e+03, 3.680000000000000000e+03, 0.000000000000000000e+00, 1.000000000000000000e+00, 1.000000000000000000e+02
7.400000000000000000e+01, 3.946153999999999996e+03, 4.231795000000000073e+03, 4.168717999999999847e+03, 4.187179000000000087e+03, 3.672307999999999993e+03, 0.000000000000000000e+00, 1.000000000000000000e+00, 1.000000000000000000e+02
7.500000000000000000e+01, 3.925641000000000076e+03, 4.219487000000000080e+03, 4.154359000000000378e+03, 4.176922999999999774e+03, 3.651282000000000153e+03, 0.000000000000000000e+00, 1.000000000000000000e+00, 1.000000000000000000e+02
7.600000000000000000e+01, 3.897949000000000069e+03, 4.209230999999999767e+03, 4.131795000000000073e+03, 4.163590000000000146e+03, 3.624103000000000065e+03, 0.000000000000000000e+00, 1.000000000000000000e+00, 1.000000000000000000e+02
7.700000000000000000e+01, 3.886153999999999996e+03, 4.209230999999999767e+03, 4.134872000000000298e+03, 4.172307999999999993e+03, 3.615385000000000218e+03, 0.000000000000000000e+00, 1.000000000000000000e+00, 1.000000000000000000e+02
7.800000000000000000e+01, 3.875896999999999935e+03, 4.211282000000000153e+03, 4.147692000000000007e+03, 4.177948999999999614e+03, 3.613846000000000004e+03, 0.000000000000000000e+00, 1.000000000000000000e+00, 1.000000000000000000e+02
7.900000000000000000e+01, 3.855896999999999935e+03, 4.213332999999999629e+03, 4.156922999999999774e+03, 4.173332999999999629e+03, 3.606153999999999996e+03, 0.000000000000000000e+00, 1.000000000000000000e+00, 1.000000000000000000e+02
8.000000000000000000e+01, 3.839487000000000080e+03, 4.217435999999999694e+03, 4.164614999999999782e+03, 4.185640999999999622e+03, 3.591282000000000153e+03, 0.000000000000000000e+00, 1.000000000000000000e+00, 1.000000000000000000e+02
8.100000000000000000e+01, 3.835896999999999935e+03, 4.213332999999999629e+03, 4.174359000000000378e+03, 4.193845999999999549e+03, 3.582563999999999851e+03, 0.000000000000000000e+00, 1.000000000000000000e+00, 1.000000000000000000e+02
8.200000000000000000e+01, 3.826666999999999916e+03, 4.203077000000000226e+03, 4.171795000000000073e+03, 4.184614999999999782e+03, 3.568717999999999847e+03, 0.000000000000000000e+00, 1.000000000000000000e+00, 1.000000000000000000e+02
8.300000000000000000e+01, 3.813333000000000084e+03, 4.207179000000000087e+03, 4.152307999999999993e+03, 4.174359000000000378e+03, 3.543077000000000226e+03, 0.000000000000000000e+00, 1.000000000000000000e+00, 1.000000000000000000e+02
8.400000000000000000e+01, 3.809744000000000142e+03, 4.198974000000000160e+03, 4.143590000000000146e+03, 4.168717999999999847e+03, 3.531282000000000153e+03, 0.000000000000000000e+00, 1.000000000000000000e+00, 1.000000000000000000e+02
8.500000000000000000e+01, 3.803590000000000146e+03, 4.196922999999999774e+03, 4.146154000000000451e+03, 4.170769000000000233e+03, 3.525128000000000156e+03, 0.000000000000000000e+00, 1.000000000000000000e+00, 1.000000000000000000e+02
8.600000000000000000e+01, 3.795385000000000218e+03, 4.209230999999999767e+03, 4.148204999999999927e+03, 4.178462000000000444e+03, 3.519487000000000080e+03, 0.000000000000000000e+00, 1.000000000000000000e+00, 1.000000000000000000e+02
8.700000000000000000e+01, 3.782563999999999851e+03, 4.201025999999999840e+03, 4.142051000000000386e+03, 4.174359000000000378e+03, 3.520000000000000000e+03, 0.000000000000000000e+00, 1.000000000000000000e+00, 1.000000000000000000e+02
8.800000000000000000e+01, 3.756922999999999774e+03, 4.180512999999999920e+03, 4.133332999999999629e+03, 4.162051000000000386e+03, 3.518974000000000160e+03, 0.000000000000000000e+00, 1.000000000000000000e+00, 1.000000000000000000e+02
8.900000000000000000e+01, 3.744614999999999782e+03, 4.182564000000000306e+03, 4.136409999999999854e+03, 4.168204999999999927e+03, 3.518461999999999989e+03, 0.000000000000000000e+00, 1.000000000000000000e+00, 1.000000000000000000e+02
9.000000000000000000e+01, 3.741538000000000011e+03, 4.190769000000000233e+03, 4.134359000000000378e+03, 4.173332999999999629e+03, 3.511795000000000073e+03, 0.000000000000000000e+00, 1.000000000000000000e+00, 1.000000000000000000e+02
9.100000000000000000e+01, 3.729744000000000142e+03, 4.184614999999999782e+03, 4.132820999999999913e+03, 4.171282000000000153e+03, 3.509231000000000222e+03, 0.000000000000000000e+00, 1.000000000000000000e+00, 1.000000000000000000e+02
9.200000000000000000e+01, 3.719487000000000080e+03, 4.180512999999999920e+03, 4.143077000000000226e+03, 4.180512999999999920e+03, 3.506153999999999996e+03, 0.000000000000000000e+00, 1.000000000000000000e+00, 1.000000000000000000e+02
9.300000000000000000e+01, 3.705128000000000156e+03, 4.174359000000000378e+03, 4.137948999999999614e+03, 4.184103000000000065e+03, 3.481538000000000011e+03, 0.000000000000000000e+00, 1.000000000000000000e+00, 1.000000000000000000e+02
9.400000000000000000e+01, 3.694871999999999844e+03, 4.166154000000000451e+03, 4.135385000000000218e+03, 4.175896999999999935e+03, 3.476409999999999854e+03, 0.000000000000000000e+00, 1.000000000000000000e+00, 1.000000000000000000e+02
9.500000000000000000e+01, 3.687179000000000087e+03, 4.168204999999999927e+03, 4.149230999999999767e+03, 4.175896999999999935e+03, 3.487179000000000087e+03, 0.000000000000000000e+00, 1.000000000000000000e+00, 1.000000000000000000e+02
9.600000000000000000e+01, 3.670255999999999858e+03, 4.176409999999999854e+03, 4.149230999999999767e+03, 4.180000000000000000e+03, 3.480000000000000000e+03, 0.000000000000000000e+00, 1.000000000000000000e+00, 1.000000000000000000e+02
9.700000000000000000e+01, 3.665641000000000076e+03, 4.176409999999999854e+03, 4.138974000000000160e+03, 4.175385000000000218e+03, 3.472307999999999993e+03, 0.000000000000000000e+00, 1.000000000000000000e+00, 1.000000000000000000e+02
9.800000000000000000e+01, 3.668717999999999847e+03, 4.170256000000000313e+03, 4.137948999999999614e+03, 4.172307999999999993e+03, 3.468204999999999927e+03, 0.000000000000000000e+00, 1.000000000000000000e+00, 1.000000000000000000e+02
9.900000000000000000e+01, 3.665641000000000076e+03, 4.168204999999999927e+03, 4.146154000000000451e+03, 4.177948999999999614e+03, 3.469744000000000142e+03, 0.000000000000000000e+00, 1.000000000000000000e+00, 1.000000000000000000e+02
1.000000000000000000e+02, 3.649744000000000142e+03, 4.174359000000000378e+03, 4.138974000000000160e+03, 4.171282000000000153e+03, 3.460512999999999920e+03, 0.000000000000000000e+00, 1.000000000000000000e+00, 1.000000000000000000e+02
1.010000000000000000e+02, 3.624614999999999782e+03, 4.176409999999999854e+03, 4.124614999999999782e+03, 4.157948999999999614e+03, 3.437436000000000149e+03, 0.000000000000000000e+00, 1.000000000000000000e+00, 1.000000000000000000e+02
1.020000000000000000e+02, 3.606666999999999916e+03, 4.172307999999999993e+03, 4.129743999999999687e+03, 4.167179000000000087e+03, 3.424614999999999782e+03, 0.000000000000000000e+00, 1.000000000000000000e+00, 1.000000000000000000e+02
1.030000000000000000e+02, 3.589744000000000142e+03, 4.168204999999999927e+03, 4.126154000000000451e+03, 4.176409999999999854e+03, 3.413333000000000084e+03, 0.000000000000000000e+00, 1.000000000000000000e+00, 1.000000000000000000e+02
1.040000000000000000e+02, 3.585128000000000156e+03, 4.162051000000000386e+03, 4.123077000000000226e+03, 4.162051000000000386e+03, 3.411282000000000153e+03, 0.000000000000000000e+00, 1.000000000000000000e+00, 1.000000000000000000e+02
1.050000000000000000e+02, 3.597949000000000069e+03, 4.151795000000000073e+03, 4.139487000000000080e+03, 4.157948999999999614e+03, 3.421025999999999840e+03, 0.000000000000000000e+00, 1.000000000000000000e+00, 1.000000000000000000e+02
1.060000000000000000e+02, 3.593846000000000004e+03, 4.149743999999999687e+03, 4.143077000000000226e+03, 4.171282000000000153e+03, 3.421538000000000011e+03, 0.000000000000000000e+00, 1.000000000000000000e+00, 1.000000000000000000e+02
1.070000000000000000e+02, 3.570255999999999858e+03, 4.157948999999999614e+03, 4.131795000000000073e+03, 4.169743999999999687e+03, 3.408204999999999927e+03, 0.000000000000000000e+00, 1.000000000000000000e+00, 1.000000000000000000e+02
1.080000000000000000e+02, 3.558461999999999989e+03, 4.157948999999999614e+03, 4.125640999999999622e+03, 4.152820999999999913e+03, 3.395896999999999935e+03, 0.000000000000000000e+00, 1.000000000000000000e+00, 1.000000000000000000e+02
1.090000000000000000e+02, 3.570255999999999858e+03, 4.151795000000000073e+03, 4.133332999999999629e+03, 4.154872000000000298e+03, 3.412307999999999993e+03, 0.000000000000000000e+00, 1.000000000000000000e+00, 1.000000000000000000e+02
1.100000000000000000e+02, 3.572820999999999913e+03, 4.151795000000000073e+03, 4.131795000000000073e+03, 4.164614999999999782e+03, 3.435385000000000218e+03, 0.000000000000000000e+00, 1.000000000000000000e+00, 1.000000000000000000e+02
1.110000000000000000e+02, 3.560512999999999920e+03, 4.147692000000000007e+03, 4.116409999999999854e+03, 4.154872000000000298e+03, 3.439487000000000080e+03, 0.000000000000000000e+00, 1.000000000000000000e+00, 1.000000000000000000e+02
1.120000000000000000e+02, 3.562563999999999851e+03, 4.147692000000000007e+03, 4.118462000000000444e+03, 4.150256000000000313e+03, 3.436409999999999854e+03, 0.000000000000000000e+00, 1.000000000000000000e+00, 1.000000000000000000e+02
1.130000000000000000e+02, 3.562563999999999851e+03, 4.153845999999999549e+03, 4.125127999999999702e+03, 4.158462000000000444e+03, 3.420000000000000000e+03, 0.000000000000000000e+00, 1.000000000000000000e+00, 1.000000000000000000e+02
1.140000000000000000e+02, 3.551795000000000073e+03, 4.153845999999999549e+03, 4.125127999999999702e+03, 4.157435999999999694e+03, 3.416922999999999774e+03, 0.000000000000000000e+00, 1.000000000000000000e+00, 1.000000000000000000e+02
1.150000000000000000e+02, 3.544103000000000065e+03, 4.151795000000000073e+03, 4.126667000000000371e+03, 4.151795000000000073e+03, 3.432820999999999913e+03, 0.000000000000000000e+00, 1.000000000000000000e+00, 1.000000000000000000e+02
1.160000000000000000e+02, 3.527179000000000087e+03, 4.151795000000000073e+03, 4.129743999999999687e+03, 4.158974000000000160e+03, 3.434358999999999924e+03, 0.000000000000000000e+00, 1.000000000000000000e+00, 1.000000000000000000e+02
1.170000000000000000e+02, 3.504614999999999782e+03, 4.149743999999999687e+03, 4.137948999999999614e+03, 4.171282000000000153e+03, 3.443077000000000226e+03, 0.000000000000000000e+00, 1.000000000000000000e+00, 1.000000000000000000e+02
1.180000000000000000e+02, 3.474358999999999924e+03, 4.155896999999999935e+03, 4.138974000000000160e+03, 4.167179000000000087e+03, 3.460000000000000000e+03, 0.000000000000000000e+00, 1.000000000000000000e+00, 1.000000000000000000e+02
1.190000000000000000e+02, 3.426153999999999996e+03, 4.166154000000000451e+03, 4.142051000000000386e+03, 4.164103000000000065e+03, 3.468717999999999847e+03, 0.000000000000000000e+00, 1.000000000000000000e+00, 1.000000000000000000e+02
1.200000000000000000e+02, 3.363590000000000146e+03, 4.168204999999999927e+03, 4.149743999999999687e+03, 4.169230999999999767e+03, 3.475896999999999935e+03, 0.000000000000000000e+00, 1.000000000000000000e+00, 1.000000000000000000e+02
1.210000000000000000e+02, 3.315896999999999935e+03, 4.166154000000000451e+03, 4.146154000000000451e+03, 4.165127999999999702e+03, 3.483590000000000146e+03, 0.000000000000000000e+00, 1.000000000000000000e+00, 1.000000000000000000e+02
1.220000000000000000e+02, 3.315896999999999935e+03, 4.170256000000000313e+03, 4.141025999999999840e+03, 4.168204999999999927e+03, 3.494358999999999924e+03, 0.000000000000000000e+00, 1.000000000000000000e+00, 1.000000000000000000e+02
1.230000000000000000e+02, 3.321025999999999840e+03, 4.170256000000000313e+03, 4.130769000000000233e+03, 4.168717999999999847e+03, 3.484103000000000065e+03, 0.000000000000000000e+00, 1.000000000000000000e+00, 1.000000000000000000e+02
1.240000000000000000e+02, 3.313846000000000004e+03, 4.164103000000000065e+03, 4.124614999999999782e+03, 4.154872000000000298e+03, 3.474871999999999844e+03, 0.000000000000000000e+00, 1.000000000000000000e+00, 1.000000000000000000e+02
1.250000000000000000e+02, 3.323590000000000146e+03, 4.168204999999999927e+03, 4.134359000000000378e+03, 4.152820999999999913e+03, 3.492820999999999913e+03, 0.000000000000000000e+00, 1.000000000000000000e+00, 1.000000000000000000e+02
1.260000000000000000e+02, 3.332820999999999913e+03, 4.178462000000000444e+03, 4.136922999999999774e+03, 4.165640999999999622e+03, 3.500000000000000000e+03, 0.000000000000000000e+00, 1.000000000000000000e+00, 1.000000000000000000e+02
1.270000000000000000e+02, 3.333333000000000084e+03, 4.174359000000000378e+03, 4.137948999999999614e+03, 4.165127999999999702e+03, 3.495896999999999935e+03, 0.000000000000000000e+00, 1.000000000000000000e+00, 1.000000000000000000e+02
0.000000000000000000e+00, 3.336922999999999774e+03, 4.172307999999999993e+03, 4.139487000000000080e+03, 4.154359000000000378e+03, 3.497949000000000069e+03, 0.000000000000000000e+00, 1.000000000000000000e+00, 1.000000000000000000e+02
1.000000000000000000e+00, 3.349231000000000222e+03, 4.174359000000000378e+03, 4.135896999999999935e+03, 4.161537999999999556e+03, 3.503077000000000226e+03, 0.000000000000000000e+00, 1.000000000000000000e+00, 1.000000000000000000e+02
2.000000000000000000e+00, 3.363590000000000146e+03, 4.172307999999999993e+03, 4.142564000000000306e+03, 4.173332999999999629e+03, 3.514358999999999924e+03, 0.000000000000000000e+00, 1.000000000000000000e+00, 1.000000000000000000e+02
3.000000000000000000e+00, 3.373333000000000084e+03, 4.180512999999999920e+03, 4.157435999999999694e+03, 4.175385000000000218e+03, 3.526666999999999916e+03, 0.000000000000000000e+00, 1.000000000000000000e+00, 1.000000000000000000e+02
4.000000000000000000e+00, 3.383077000000000226e+03, 4.198974000000000160e+03, 4.166667000000000371e+03, 4.177948999999999614e+03, 3.537949000000000069e+03, 0.000000000000000000e+00, 1.000000000000000000e+00, 1.000000000000000000e+02
5.000000000000000000e+00, 3.398974000000000160e+03, 4.203077000000000226e+03, 4.161025999999999840e+03, 4.174359000000000378e+03, 3.546153999999999996e+03, 0.000000000000000000e+00, 1.000000000000000000e+00, 1.000000000000000000e+02
6.000000000000000000e+00, 3.418974000000000160e+03, 4.192820999999999913e+03, 4.161025999999999840e+03, 4.170769000000000233e+03, 3.561025999999999840e+03, 0.000000000000000000e+00, 1.000000000000000000e+00, 1.000000000000000000e+02
7.000000000000000000e+00, 3.427692000000000007e+03, 4.186667000000000371e+03, 4.159487000000000080e+03, 4.180000000000000000e+03, 3.572307999999999993e+03, 0.000000000000000000e+00, 1.000000000000000000e+00, 1.000000000000000000e+02
8.000000000000000000e+00, 3.425641000000000076e+03, 4.190769000000000233e+03, 4.135896999999999935e+03, 4.182051000000000386e+03, 3.561538000000000011e+03, 0.000000000000000000e+00, 1.000000000000000000e+00, 1.000000000000000000e+02
9.000000000000000000e+00, 3.429744000000000142e+03, 4.194872000000000298e+03, 4.129743999999999687e+03, 4.168717999999999847e+03, 3.559487000000000080e+03, 0.000000000000000000e+00, 1.000000000000000000e+00, 1.000000000000000000e+02
1.000000000000000000e+01, 3.431795000000000073e+03, 4.192820999999999913e+03, 4.135896999999999935e+03, 4.160512999999999920e+03, 3.564614999999999782e+03, 0.000000000000000000e+00, 1.000000000000000000e+00, 1.000000000000000000e+02
1.100000000000000000e+01, 3.430768999999999778e+03, 4.180512999999999920e+03, 4.123590000000000146e+03, 4.161025999999999840e+03, 3.555896999999999935e+03, 0.000000000000000000e+00, 1.000000000000000000e+00, 1.000000000000000000e+02
1.200000000000000000e+01, 3.436409999999999854e+03, 4.176409999999999854e+03, 4.112307999999999993e+03, 4.158462000000000444e+03, 3.550255999999999858e+03, 0.000000000000000000e+00, 1.000000000000000000e+00, 1.000000000000000000e+02
1.300000000000000000e+01, 3.438974000000000160e+03, 4.188717999999999847e+03, 4.110769000000000233e+03, 4.155385000000000218e+03, 3.555896999999999935e+03, 0.000000000000000000e+00, 1.000000000000000000e+00, 1.000000000000000000e+02
1.400000000000000000e+01, 3.451795000000000073e+03, 4.194872000000000298e+03, 4.123590000000000146e+03, 4.167179000000000087e+03, 3.579487000000000080e+03, 0.000000000000000000e+00, 1.000000000000000000e+00, 1.000000000000000000e+02
1.500000000000000000e+01, 3.471795000000000073e+03, 4.190769000000000233e+03, 4.134359000000000378e+03, 4.172307999999999993e+03, 3.601538000000000011e+03, 0.000000000000000000e+00, 1.000000000000000000e+00, 1.000000000000000000e+02
1.600000000000000000e+01, 3.475896999999999935e+03, 4.186667000000000371e+03, 4.126154000000000451e+03, 4.159487000000000080e+03, 3.608717999999999847e+03, 0.000000000000000000e+00, 1.000000000000000000e+00, 1.000000000000000000e+02
1.700000000000000000e+01, 3.488717999999999847e+03, 4.186667000000000371e+03, 4.124103000000000065e+03, 4.161025999999999840e+03, 3.624614999999999782e+03, 0.000000000000000000e+00, 1.000000000000000000e+00, 1.000000000000000000e+02
1.800000000000000000e+01, 3.502563999999999851e+03, 4.180512999999999920e+03, 4.118462000000000444e+03, 4.159487000000000080e+03, 3.627179000000000087e+03, 0.000000000000000000e+00, 1.000000000000000000e+00, 1.000000000000000000e+02
1.900000000000000000e+01, 3.510255999999999858e+03, 4.178462000000000444e+03, 4.106667000000000371e+03, 4.143590000000000146e+03, 3.621538000000000011e+03, 0.000000000000000000e+00, 1.000000000000000000e+00, 1.000000000000000000e+02
2.000000000000000000e+01, 3.529744000000000142e+03, 4.184614999999999782e+03, 4.115896999999999935e+03, 4.148717999999999847e+03, 3.641538000000000011e+03, 0.000000000000000000e+00, 1.000000000000000000e+00, 1.000000000000000000e+02
2.100000000000000000e+01, 3.548204999999999927e+03, 4.186667000000000371e+03, 4.124614999999999782e+03, 4.156922999999999774e+03, 3.660000000000000000e+03, 0.000000000000000000e+00, 1.000000000000000000e+00, 1.000000000000000000e+02
2.200000000000000000e+01, 3.559487000000000080e+03, 4.176409999999999854e+03, 4.121025999999999840e+03, 4.145127999999999702e+03, 3.661538000000000011e+03, 0.000000000000000000e+00, 1.000000000000000000e+00, 1.000000000000000000e+02
2.300000000000000000e+01, 3.568717999999999847e+03, 4.166154000000000451e+03, 4.121537999999999556e+03, 4.135896999999999935e+03, 3.662050999999999931e+03, 0.000000000000000000e+00, 1.000000000000000000e+00, 1.000000000000000000e+02
2.400000000000000000e+01, 3.592820999999999913e+03, 4.170256000000000313e+03, 4.135385000000000218e+03, 4.149230999999999767e+03, 3.689231000000000222e+03, 0.000000000000000000e+00, 1.000000000000000000e+00, 1.000000000000000000e+02
2.500000000000000000e+01, 3.621025999999999840e+03, 4.186667000000000371e+03, 4.146667000000000371e+03, 4.169230999999999767e+03, 3.718974000000000160e+03, 0.000000000000000000e+00, 1.000000000000000000e+00, 1.000000000000000000e+02
2.600000000000000000e+01, 3.627179000000000087e+03, 4.190769000000000233e+03, 4.144614999999999782e+03, 4.177435999999999694e+03, 3.717436000000000149e+03, 0.000000000000000000e+00, 1.000000000000000000e+00, 1.000000000000000000e+02
2.700000000000000000e+01, 3.637949000000000069e+03, 4.182564000000000306e+03, 4.144614999999999782e+03, 4.171795000000000073e+03, 3.723590000000000146e+03, 0.000000000000000000e+00, 1.000000000000000000e+00, 1.000000000000000000e+02
2.800000000000000000e+01, 3.667692000000000007e+03, 4.186667000000000371e+03, 4.139487000000000080e+03, 4.161025999999999840e+03, 3.735896999999999935e+03, 0.000000000000000000e+00, 1.000000000000000000e+00, 1.000000000000000000e+02
2.900000000000000000e+01, 3.701538000000000011e+03, 4.192820999999999913e+03, 4.140000000000000000e+03, 4.167692000000000007e+03, 3.748717999999999847e+03, 0.000000000000000000e+00, 1.000000000000000000e+00, 1.000000000000000000e+02
3.000000000000000000e+01, 3.720512999999999920e+03, 4.186667000000000371e+03, 4.141537999999999556e+03, 4.172820999999999913e+03, 3.764614999999999782e+03, 0.000000000000000000e+00, 1.000000000000000000e+00, 1.000000000000000000e+02
3.100000000000000000e+01, 3.730768999999999778e+03, 4.184614999999999782e+03, 4.133332999999999629e+03, 4.163077000000000226e+03, 3.772820999999999913e+03, 0.000000000000000000e+00, 1.000000000000000000e+00, 1.000000000000000000e+02
3.200000000000000000e+01, 3.758461999999999989e+03, 4.194872000000000298e+03, 4.139487000000000080e+03, 4.162051000000000386e+03, 3.788204999999999927e+03, 0.000000000000000000e+00, 1.000000000000000000e+00, 1.000000000000000000e+02
3.300000000000000000e+01, 3.786153999999999996e+03, 4.201025999999999840e+03, 4.135896999999999935e+03, 4.162051000000000386e+03, 3.802563999999999851e+03, 0.000000000000000000e+00, 1.000000000000000000e+00, 1.000000000000000000e+02
3.400000000000000000e+01, 3.804103000000000065e+03, 4.198974000000000160e+03, 4.118462000000000444e+03, 4.154359000000000378e+03, 3.812820999999999913e+03, 0.000000000000000000e+00, 1.000000000000000000e+00, 1.000000000000000000e+02
3.500000000000000000e+01, 3.822050999999999931e+03, 4.198974000000000160e+03, 4.117435999999999694e+03, 4.149743999999999687e+03, 3.820000000000000000e+03, 0.000000000000000000e+00, 1.000000000000000000e+00, 1.000000000000000000e+02
3.600000000000000000e+01, 3.834358999999999924e+03, 4.196922999999999774e+03, 4.122051000000000386e+03, 4.146154000000000451e+03, 3.823590000000000146e+03, 0.000000000000000000e+00, 1.000000000000000000e+00, 1.000000000000000000e+02
3.700000000000000000e+01, 3.856409999999999854e+03, 4.196922999999999774e+03, 4.126667000000000371e+03, 4.154872000000000298e+03, 3.844103000000000065e+03, 0.000000000000000000e+00, 1.000000000000000000e+00, 1.000000000000000000e+02
3.800000000000000000e+01, 3.881025999999999840e+03, 4.205127999999999702e+03, 4.128204999999999927e+03, 4.173332999999999629e+03, 3.865128000000000156e+03, 0.000000000000000000e+00, 1.000000000000000000e+00, 1.000000000000000000e+02
3.900000000000000000e+01, 3.884614999999999782e+03, 4.198974000000000160e+03, 4.118462000000000444e+03, 4.173845999999999549e+03, 3.864614999999999782e+03, 0.000000000000000000e+00, 1.000000000000000000e+00, 1.000000000000000000e+02
4.000000000000000000e+01, 3.888204999999999927e+03, 4.184614999999999782e+03, 4.119487000000000080e+03, 4.160000000000000000e+03, 3.864103000000000065e+03, 0.000000000000000000e+00, 1.000000000000000000e+00, 1.000000000000000000e+02
4.100000000000000000e+01, 3.903077000000000226e+03, 4.192820999999999913e+03, 4.130256000000000313e+03, 4.158974000000000160e+03, 3.872820999999999913e+03, 0.000000000000000000e+00, 1.000000000000000000e+00, 1.000000000000000000e+02
4.200000000000000000e+01, 3.917436000000000149e+03, 4.201025999999999840e+03, 4.125127999999999702e+03, 4.165127999999999702e+03, 3.885641000000000076e+03, 0.000000000000000000e+00, 1.000000000000000000e+00, 1.000000000000000000e+02
4.300000000000000000e+01, 3.925641000000000076e+03, 4.188717999999999847e+03, 4.110769000000000233e+03, 4.159487000000000080e+03, 3.899487000000000080e+03, 0.000000000000000000e+00, 1.000000000000000000e+00, 1.000000000000000000e+02
4.400000000000000000e+01, 3.935385000000000218e+03, 4.180512999999999920e+03, 4.111795000000000073e+03, 4.154872000000000298e+03, 3.914871999999999844e+03, 0.000000000000000000e+00, 1.000000000000000000e+00, 1.000000000000000000e+02
4.500000000000000000e+01, 3.957436000000000149e+03, 4.192820999999999913e+03, 4.116409999999999854e+03, 4.162051000000000386e+03, 3.933333000000000084e+03, 0.000000000000000000e+00, 1.000000000000000000e+00, 1.000000000000000000e+02
4.600000000000000000e+01, 3.972307999999999993e+03, 4.205127999999999702e+03, 4.107692000000000007e+03, 4.162564000000000306e+03, 3.943590000000000146e+03, 0.000000000000000000e+00, 1.000000000000000000e+00, 1.000000000000000000e+02
4.700000000000000000e+01, 3.976409999999999854e+03, 4.201025999999999840e+03, 4.112820999999999913e+03, 4.158974000000000160e+03, 3.963590000000000146e+03, 0.000000000000000000e+00, 1.000000000000000000e+00, 1.000000000000000000e+02
4.800000000000000000e+01, 3.980000000000000000e+03, 4.196922999999999774e+03, 4.117948999999999614e+03, 4.166667000000000371e+03, 3.984614999999999782e+03, 0.000000000000000000e+00, 1.000000000000000000e+00, 1.000000000000000000e+02
4.900000000000000000e+01, 4.000000000000000000e+03, 4.203077000000000226e+03, 4.116409999999999854e+03, 4.176922999999999774e+03, 4.005128000000000156e+03, 0.000000000000000000e+00, 1.000000000000000000e+00, 1.000000000000000000e+02
5.000000000000000000e+01, 4.038461999999999989e+03, 4.217435999999999694e+03, 4.144103000000000065e+03, 4.181025999999999840e+03, 4.046666999999999916e+03, 0.000000000000000000e+00, 1.000000000000000000e+00, 1.000000000000000000e+02
5.100000000000000000e+01, 4.054871999999999844e+03, 4.221537999999999556e+03, 4.155896999999999935e+03, 4.184103000000000065e+03, 4.057436000000000149e+03, 0.000000000000000000e+00, 1.000000000000000000e+00, 1.000000000000000000e+02
5.200000000000000000e+01, 4.050768999999999778e+03, 4.213332999999999629e+03, 4.134359000000000378e+03, 4.184614999999999782e+03, 4.044103000000000065e+03, 0.000000000000000000e+00, 1.000000000000000000e+00, 1.000000000000000000e+02
5.300000000000000000e+01, 4.060512999999999920e+03, 4.198974000000000160e+03, 4.134359000000000378e+03, 4.177435999999999694e+03, 4.052820999999999913e+03, 0.000000000000000000e+00, 1.000000000000000000e+00, 1.000000000000000000e+02
5.400000000000000000e+01, 4.084103000000000065e+03, 4.196922999999999774e+03, 4.147179000000000087e+03, 4.177435999999999694e+03, 4.073846000000000004e+03, 0.000000000000000000e+00, 1.000000000000000000e+00, 1.000000000000000000e+02
5.500000000000000000e+01, 4.106667000000000371e+03, 4.201025999999999840e+03, 4.138974000000000160e+03, 4.187692000000000007e+03, 4.103077000000000226e+03, 0.000000000000000000e+00, 1.000000000000000000e+00, 1.000000000000000000e+02
5.600000000000000000e+01, 4.114872000000000298e+03, 4.201025999999999840e+03, 4.123590000000000146e+03, 4.185640999999999622e+03, 4.128204999999999927e+03, 0.000000000000000000e+00, 1.000000000000000000e+00, 1.000000000000000000e+02
5.700000000000000000e+01, 4.120512999999999920e+03, 4.194872000000000298e+03, 4.122564000000000306e+03, 4.172820999999999913e+03, 4.138974000000000160e+03, 0.000000000000000000e+00, 1.000000000000000000e+00, 1.000000000000000000e+02
5.800000000000000000e+01, 4.135896999999999935e+03, 4.196922999999999774e+03, 4.120512999999999920e+03, 4.168717999999999847e+03, 4.150256000000000313e+03, 0.000000000000000000e+00, 1.000000000000000000e+00, 1.000000000000000000e+02
5.900000000000000000e+01, 4.155896999999999935e+03, 4.201025999999999840e+03, 4.118462000000000444e+03, 4.176409999999999854e+03, 4.174872000000000298e+03, 0.000000000000000000e+00, 1.000000000000000000e+00, 1.000000000000000000e+02
6.000000000000000000e+01, 4.174359000000000378e+03, 4.201025999999999840e+03, 4.132820999999999913e+03, 4.182051000000000386e+03, 4.205640999999999622e+03, 0.000000000000000000e+00, 1.000000000000000000e+00, 1.000000000000000000e+02
6.100000000000000000e+01, 4.182051000000000386e+03, 4.194872000000000298e+03, 4.132820999999999913e+03, 4.170769000000000233e+03, 4.219487000000000080e+03, 0.000000000000000000e+00, 1.000000000000000000e+00, 1.000000000000000000e+02
6.200000000000000000e+01, 4.189230999999999767e+03, 4.196922999999999774e+03, 4.126154000000000451e+03, 4.169743999999999687e+03, 4.232307999999999993e+03, 0.000000000000000000e+00, 1.000000000000000000e+00, 1.000000000000000000e+02
6.300000000000000000e+01, 4.199487000000000080e+03, 4.205127999999999702e+03, 4.132820999999999913e+03, 4.184614999999999782e+03, 4.250769000000000233e+03, 0.000000000000000000e+00, 1.000000000000000000e+00, 1.000000000000000000e+02
6.400000000000000000e+01, 4.200512999999999920e+03, 4.207179000000000087e+03, 4.127179000000000087e+03, 4.176922999999999774e+03, 4.252307999999999993e+03, 0.000000000000000000e+00, 1.000000000000000000e+00, 1.000000000000000000e+02
6.500000000000000000e+01, 4.214872000000000298e+03, 4.201025999999999840e+03, 4.122564000000000306e+03, 4.165640999999999622e+03, 4.263077000000000226e+03, 0.000000000000000000e+00, 1.000000000000000000e+00, 1.000000000000000000e+02
6.600000000000000000e+01, 4.232307999999999993e+03, 4.201025999999999840e+03, 4.125127999999999702e+03, 4.174872000000000298e+03, 4.276409999999999854e+03, 0.000000000000000000e+00, 1.000000000000000000e+00, 1.000000000000000000e+02
6.700000000000000000e+01, 4.236409999999999854e+03, 4.209230999999999767e+03, 4.130256000000000313e+03, 4.181025999999999840e+03, 4.277435999999999694e+03, 0.000000000000000000e+00, 1.000000000000000000e+00, 1.000000000000000000e+02
6.800000000000000000e+01, 4.242564000000000306e+03, 4.211282000000000153e+03, 4.137948999999999614e+03, 4.180512999999999920e+03, 4.291795000000000073e+03, 0.000000000000000000e+00, 1.000000000000000000e+00, 1.000000000000000000e+02
6.900000000000000000e+01, 4.251795000000000073e+03, 4.209230999999999767e+03, 4.131795000000000073e+03, 4.179487000000000080e+03, 4.314359000000000378e+03, 0.000000000000000000e+00, 1.000000000000000000e+00, 1.000000000000000000e+02
7.000000000000000000e+01, 4.266667000000000371e+03, 4.211282000000000153e+03, 4.129230999999999767e+03, 4.171795000000000073e+03, 4.336922999999999774e+03, 0.000000000000000000e+00, 1.000000000000000000e+00, 1.000000000000000000e+02
7.100000000000000000e+01, 4.279487000000000080e+03, 4.221537999999999556e+03, 4.138462000000000444e+03, 4.167179000000000087e+03, 4.348717999999999847e+03, 0.000000000000000000e+00, 1.000000000000000000e+00, 1.000000000000000000e+02
7.200000000000000000e+01, 4.287692000000000007e+03, 4.227692000000000007e+03, 4.139487000000000080e+03, 4.179487000000000080e+03, 4.356409999999999854e+03, 0.000000000000000000e+00, 1.000000000000000000e+00, 1.000000000000000000e+02
7.300000000000000000e+01, 4.300512999999999920e+03, 4.223590000000000146e+03, 4.128717999999999847e+03, 4.185127999999999702e+03, 4.370769000000000233e+03, 0.000000000000000000e+00, 1.000000000000000000e+00, 1.000000000000000000e+02
7.400000000000000000e+01, 4.319487000000000080e+03, 4.219487000000000080e+03, 4.127692000000000007e+03, 4.175896999999999935e+03, 4.390256000000000313e+03, 0.000000000000000000e+00, 1.000000000000000000e+00, 1.000000000000000000e+02
7.500000000000000000e+01, 4.338462000000000444e+03, 4.227692000000000007e+03, 4.138974000000000160e+03, 4.180000000000000000e+03, 4.420000000000000000e+03, 0.000000000000000000e+00, 1.000000000000000000e+00, 1.000000000000000000e+02
7.600000000000000000e+01, 4.347179000000000087e+03, 4.235896999999999935e+03, 4.137435999999999694e+03, 4.187179000000000087e+03, 4.431282000000000153e+03, 0.000000000000000000e+00, 1.000000000000000000e+00, 1.000000000000000000e+02
7.700000000000000000e+01, 4.362051000000000386e+03, 4.235896999999999935e+03, 4.132307999999999993e+03, 4.182051000000000386e+03, 4.428717999999999847e+03, 0.000000000000000000e+00, 1.000000000000000000e+00, 1.000000000000000000e+02
7.800000000000000000e+01, 4.381025999999999840e+03, 4.221537999999999556e+03, 4.131795000000000073e+03, 4.170769000000000233e+03, 4.438462000000000444e+03, 0.000000000000000000e+00, 1.000000000000000000e+00, 1.000000000000000000e+02
7.900000000000000000e+01, 4.382564000000000306e+03, 4.215385000000000218e+03, 4.119487000000000080e+03, 4.164103000000000065e+03, 4.441025999999999840e+03, 0.000000000000000000e+00, 1.000000000000000000e+00, 1.000000000000000000e+02
8.000000000000000000e+01, 4.383590000000000146e+03, 4.225640999999999622e+03, 4.116409999999999854e+03, 4.169230999999999767e+03, 4.448717999999999847e+03, 0.000000000000000000e+00, 1.000000000000000000e+00, 1.000000000000000000e+02
8.100000000000000000e+01, 4.394872000000000298e+03, 4.229743999999999687e+03, 4.120512999999999920e+03, 4.171795000000000073e+03, 4.469743999999999687e+03, 0.000000000000000000e+00, 1.000000000000000000e+00, 1.000000000000000000e+02
8.200000000000000000e+01, 4.412307999999999993e+03, 4.223590000000000146e+03, 4.116409999999999854e+03, 4.163077000000000226e+03, 4.488717999999999847e+03, 0.000000000000000000e+00, 1.000000000000000000e+00, 1.000000000000000000e+02
8.300000000000000000e+01, 4.433845999999999549e+03, 4.227692000000000007e+03, 4.121537999999999556e+03, 4.164103000000000065e+03, 4.506667000000000371e+03, 0.000000000000000000e+00, 1.000000000000000000e+00, 1.000000000000000000e+02
8.400000000000000000e+01, 4.442051000000000386e+03, 4.235896999999999935e+03, 4.124614999999999782e+03, 4.163590000000000146e+03, 4.512820999999999913e+03, 0.000000000000000000e+00, 1.000000000000000000e+00, 1.000000000000000000e+02
8.500000000000000000e+01, 4.450256000000000313e+03, 4.229743999999999687e+03, 4.121537999999999556e+03, 4.156922999999999774e+03, 4.514359000000000378e+03, 0.000000000000000000e+00, 1.000000000000000000e+00, 1.000000000000000000e+02
8.600000000000000000e+01, 4.469743999999999687e+03, 4.223590000000000146e+03, 4.115385000000000218e+03, 4.168204999999999927e+03, 4.523590000000000146e+03, 0.000000000000000000e+00, 1.000000000000000000e+00, 1.000000000000000000e+02
8.700000000000000000e+01, 4.482051000000000386e+03, 4.219487000000000080e+03, 4.099487000000000080e+03, 4.174872000000000298e+03, 4.529230999999999767e+03, 0.000000000000000000e+00, 1.000000000000000000e+00, 1.000000000000000000e+02
8.800000000000000000e+01, 4.494359000000000378e+03, 4.225640999999999622e+03, 4.098462000000000444e+03, 4.163590000000000146e+03, 4.541025999999999840e+03, 0.000000000000000000e+00, 1.000000000000000000e+00, 1.000000000000000000e+02
8.900000000000000000e+01, 4.507179000000000087e+03, 4.229743999999999687e+03, 4.107179000000000087e+03, 4.163077000000000226e+03, 4.563077000000000226e+03, 0.000000000000000000e+00, 1.000000000000000000e+00, 1.000000000000000000e+02
9.000000000000000000e+01, 4.514359000000000378e+03, 4.227692000000000007e+03, 4.106667000000000371e+03, 4.172307999999999993e+03, 4.586154000000000451e+03, 0.000000000000000000e+00, 1.000000000000000000e+00, 1.000000000000000000e+02
9.100000000000000000e+01, 4.528204999999999927e+03, 4.227692000000000007e+03, 4.103590000000000146e+03, 4.171282000000000153e+03, 4.601537999999999556e+03, 0.000000000000000000e+00, 1.000000000000000000e+00, 1.000000000000000000e+02
9.200000000000000000e+01, 4.542564000000000306e+03, 4.231795000000000073e+03, 4.101025999999999840e+03, 4.158974000000000160e+03, 4.612820999999999913e+03, 0.000000000000000000e+00, 1.000000000000000000e+00, 1.000000000000000000e+02
9.300000000000000000e+01, 4.558462000000000444e+03, 4.235896999999999935e+03, 4.111795000000000073e+03, 4.155896999999999935e+03, 4.638974000000000160e+03, 0.000000000000000000e+00, 1.000000000000000000e+00, 1.000000000000000000e+02
9.400000000000000000e+01, 4.569230999999999767e+03, 4.235896999999999935e+03, 4.117948999999999614e+03, 4.169743999999999687e+03, 4.652820999999999913e+03, 0.000000000000000000e+00, 1.000000000000000000e+00, 1.000000000000000000e+02
9.500000000000000000e+01, 4.575385000000000218e+03, 4.227692000000000007e+03, 4.112820999999999913e+03, 4.173845999999999549e+03, 4.652307999999999993e+03, 0.000000000000000000e+00, 1.000000000000000000e+00, 1.000000000000000000e+02
9.600000000000000000e+01, 4.593845999999999549e+03, 4.225640999999999622e+03, 4.115385000000000218e+03, 4.157948999999999614e+03, 4.668204999999999927e+03, 0.000000000000000000e+00, 1.000000000000000000e+00, 1.000000000000000000e+02
9.700000000000000000e+01, 4.616922999999999774e+03, 4.229743999999999687e+03, 4.115896999999999935e+03, 4.151282000000000153e+03, 4.691282000000000153e+03, 0.000000000000000000e+00, 1.000000000000000000e+00, 1.000000000000000000e+02
9.800000000000000000e+01, 4.637435999999999694e+03, 4.231795000000000073e+03, 4.111795000000000073e+03, 4.163077000000000226e+03, 4.709230999999999767e+03, 0.000000000000000000e+00, 1.000000000000000000e+00, 1.000000000000000000e+02
9.900000000000000000e+01, 4.655385000000000218e+03, 4.233845999999999549e+03, 4.107692000000000007e+03, 4.166154000000000451e+03, 4.713845999999999549e+03, 0.000000000000000000e+00, 1.000000000000000000e+00, 1.000000000000000000e+02
1.000000000000000000e+02, 4.675896999999999935e+03, 4.235896999999999935e+03, 4.115385000000000218e+03, 4.164614999999999782e+03, 4.730256000000000313e+03, 0.000000000000000000e+00, 1.000000000000000000e+00, 1.000000000000000000e+02
1.010000000000000000e+02, 4.683077000000000226e+03, 4.231795000000000073e+03, 4.121537999999999556e+03, 4.162051000000000386e+03, 4.745640999999999622e+03, 0.000000000000000000e+00, 1.000000000000000000e+00, 1.000000000000000000e+02
1.020000000000000000e+02, 4.677948999999999614e+03, 4.231795000000000073e+03, 4.115385000000000218e+03, 4.160512999999999920e+03, 4.742564000000000306e+03, 0.000000000000000000e+00, 1.000000000000000000e+00, 1.000000000000000000e+02
1.030000000000000000e+02, 4.692307999999999993e+03, 4.242051000000000386e+03, 4.121537999999999556e+03, 4.166667000000000371e+03, 4.768204999999999927e+03, 0.000000000000000000e+00, 1.000000000000000000e+00, 1.000000000000000000e+02
1.040000000000000000e+02, 4.704614999999999782e+03, 4.240000000000000000e+03, 4.124614999999999782e+03, 4.154872000000000298e+03, 4.788717999999999847e+03, 0.000000000000000000e+00, 1.000000000000000000e+00, 1.000000000000000000e+02
1.050000000000000000e+02, 4.701025999999999840e+03, 4.231795000000000073e+03, 4.111795000000000073e+03, 4.146154000000000451e+03, 4.777948999999999614e+03, 0.000000000000000000e+00, 1.000000000000000000e+00, 1.000000000000000000e+02
1.060000000000000000e+02, 4.711795000000000073e+03, 4.231795000000000073e+03, 4.108204999999999927e+03, 4.163590000000000146e+03, 4.789230999999999767e+03, 0.000000000000000000e+00, 1.000000000000000000e+00, 1.000000000000000000e+02
1.070000000000000000e+02, 4.727179000000000087e+03, 4.237948999999999614e+03, 4.108717999999999847e+03, 4.169230999999999767e+03, 4.806667000000000371e+03, 0.000000000000000000e+00, 1.000000000000000000e+00, 1.000000000000000000e+02
1.080000000000000000e+02, 4.735896999999999935e+03, 4.235896999999999935e+03, 4.107692000000000007e+03, 4.162564000000000306e+03, 4.815385000000000218e+03, 0.000000000000000000e+00, 1.000000000000000000e+00, 1.000000000000000000e+02
1.090000000000000000e+02, 4.744103000000000065e+03, 4.233845999999999549e+03, 4.101025999999999840e+03, 4.156922999999999774e+03, 4.832820999999999913e+03, 0.000000000000000000e+00, 1.000000000000000000e+00, 1.000000000000000000e+02
1.100000000000000000e+02, 4.750769000000000233e+03, 4.229743999999999687e+03, 4.095896999999999935e+03, 4.151795000000000073e+03, 4.847179000000000087e+03, 0.000000000000000000e+00, 1.000000000000000000e+00, 1.000000000000000000e+02
1.110000000000000000e+02, 4.756409999999999854e+03, 4.229743999999999687e+03, 4.101537999999999556e+03, 4.155896999999999935e+03, 4.854872000000000298e+03, 0.000000000000000000e+00, 1.000000000000000000e+00, 1.000000000000000000e+02
1.120000000000000000e+02, 4.768204999999999927e+03, 4.231795000000000073e+03, 4.105127999999999702e+03, 4.164103000000000065e+03, 4.862564000000000306e+03, 0.000000000000000000e+00, 1.000000000000000000e+00, 1.000000000000000000e+02
1.130000000000000000e+02, 4.792307999999999993e+03, 4.231795000000000073e+03, 4.117435999999999694e+03, 4.168717999999999847e+03, 4.882051000000000386e+03, 0.000000000000000000e+00, 1.000000000000000000e+00, 1.000000000000000000e+02
1.140000000000000000e+02, 4.804103000000000065e+03, 4.233845999999999549e+03, 4.123077000000000226e+03, 4.173845999999999549e+03, 4.895896999999999935e+03, 0.000000000000000000e+00, 1.000000000000000000e+00, 1.000000000000000000e+02
1.150000000000000000e+02, 4.802051000000000386e+03, 4.231795000000000073e+03, 4.110256000000000313e+03, 4.176409999999999854e+03, 4.898462000000000444e+03, 0.000000000000000000e+00, 1.000000000000000000e+00, 1.000000000000000000e+02
1.160000000000000000e+02, 4.814359000000000378e+03, 4.233845999999999549e+03, 4.109230999999999767e+03, 4.170256000000000313e+03, 4.910256000000000313e+03, 0.000000000000000000e+00, 1.000000000000000000e+00, 1.000000000000000000e+02
1.170000000000000000e+02, 4.822564000000000306e+03, 4.242051000000000386e+03, 4.116922999999999774e+03, 4.167179000000000087e+03, 4.914359000000000378e+03, 0.000000000000000000e+00, 1.000000000000000000e+00, 1.000000000000000000e+02
1.180000000000000000e+02, 4.822051000000000386e+03, 4.246154000000000451e+03, 4.118462000000000444e+03, 4.173332999999999629e+03, 4.912820999999999913e+03, 0.000000000000000000e+00, 1.000000000000000000e+00, 1.000000000000000000e+02
1.190000000000000000e+02, 4.834872000000000298e+03, 4.233845999999999549e+03, 4.111795000000000073e+03, 4.175896999999999935e+03, 4.921537999999999556e+03, 0.000000000000000000e+00, 1.000000000000000000e+00, 1.000000000000000000e+02
1.200000000000000000e+02, 4.855385000000000218e+03, 4.225640999999999622e+03, 4.105127999999999702e+03, 4.165640999999999622e+03, 4.942051000000000386e+03, 0.000000000000000000e+00, 1.000000000000000000e+00, 1.000000000000000000e+02
1.210000000000000000e+02, 4.877435999999999694e+03, 4.231795000000000073e+03, 4.108204999999999927e+03, 4.153332999999999629e+03, 4.968717999999999847e+03, 0.000000000000000000e+00, 1.000000000000000000e+00, 1.000000000000000000e+02
1.220000000000000000e+02, 4.892820999999999913e+03, 4.233845999999999549e+03, 4.102564000000000306e+03, 4.150256000000000313e+03, 4.982564000000000306e+03, 0.000000000000000000e+00, 1.000000000000000000e+00, 1.000000000000000000e+02
1.230000000000000000e+02, 4.905127999999999702e+03, 4.227692000000000007e+03, 4.097435999999999694e+03, 4.159487000000000080e+03, 4.993332999999999629e+03, 0.000000000000000000e+00, 1.000000000000000000e+00, 1.000000000000000000e+02
1.240000000000000000e+02, 4.911795000000000073e+03, 4.231795000000000073e+03, 4.108204999999999927e+03, 4.167179000000000087e+03, 4.997435999999999694e+03, 0.000000000000000000e+00, 1.000000000000000000e+00, 1.000000000000000000e+02
1.250000000000000000e+02, 4.911282000000000153e+03, 4.242051000000000386e+03, 4.118462000000000444e+03, 4.166667000000000371e+03, 4.998462000000000444e+03, 1.000000000000000000e+00, 0.000000000000000000e+00, 1.000000000000000000e+02
1.260000000000000000e+02, 4.919487000000000080e+03, 4.237948999999999614e+03, 4.124614999999999782e+03, 4.165127999999999702e+03, 5.016922999999999774e+03, 1.000000000000000000e+00, 0.000000000000000000e+00, 1.000000000000000000e+02
1.270000000000000000e+02, 4.930769000000000233e+03, 4.231795000000000073e+03, 4.124614999999999782e+03, 4.165127999999999702e+03, 5.026154000000000451e+03, 1.000000000000000000e+00, 0.000000000000000000e+00, 1.000000000000000000e+02
0.000000000000000000e+00, 4.939487000000000080e+03, 4.240000000000000000e+03, 4.127692000000000007e+03, 4.169743999999999687e+03, 5.034872000000000298e+03, 1.000000000000000000e+00, 0.000000000000000000e+00, 1.000000000000000000e+02
1.000000000000000000e+00, 4.947692000000000007e+03, 4.237948999999999614e+03, 4.131282000000000153e+03, 4.176922999999999774e+03, 5.049230999999999767e+03, 1.000000000000000000e+00, 0.000000000000000000e+00, 1.000000000000000000e+02
