COUNTER, AF3, T7, Pz, T8, AF4, MARKERS['YES','NO'], TICK, ContactQuality
5.300000000000000000e+01, 5.824103000000000065e+03, 4.270769000000000233e+03, 4.191795000000000073e+03, 4.226667000000000371e+03, 5.812820999999999913e+03, 0.000000000000000000e+00, 1.000000000000000000e+00, 1.000000000000000000e+02
5.400000000000000000e+01, 5.818462000000000444e+03, 4.268717999999999847e+03, 4.177435999999999694e+03, 4.220512999999999920e+03, 5.804103000000000065e+03, 0.000000000000000000e+00, 1.000000000000000000e+00, 1.000000000000000000e+02
5.500000000000000000e+01, 5.802051000000000386e+03, 4.256409999999999854e+03, 4.155896999999999935e+03, 4.201537999999999556e+03, 5.787179000000000087e+03, 0.000000000000000000e+00, 1.000000000000000000e+00, 1.000000000000000000e+02
5.600000000000000000e+01, 5.800000000000000000e+03, 4.252307999999999993e+03, 4.164103000000000065e+03, 4.197435999999999694e+03, 5.789230999999999767e+03, 0.000000000000000000e+00, 1.000000000000000000e+00, 1.000000000000000000e+02
5.700000000000000000e+01, 5.789230999999999767e+03, 4.252307999999999993e+03, 4.160512999999999920e+03, 4.181025999999999840e+03, 5.779487000000000080e+03, 0.000000000000000000e+00, 1.000000000000000000e+00, 1.000000000000000000e+02
5.800000000000000000e+01, 5.791282000000000153e+03, 4.254359000000000378e+03, 4.149743999999999687e+03, 4.171795000000000073e+03, 5.777435999999999694e+03, 0.000000000000000000e+00, 1.000000000000000000e+00, 1.000000000000000000e+02
5.900000000000000000e+01, 5.798974000000000160e+03, 4.254359000000000378e+03, 4.142051000000000386e+03, 4.173845999999999549e+03, 5.797435999999999694e+03, 0.000000000000000000e+00, 1.000000000000000000e+00, 1.000000000000000000e+02
6.000000000000000000e+01, 5.795896999999999935e+03, 4.244103000000000065e+03, 4.136922999999999774e+03, 4.169230999999999767e+03, 5.808204999999999927e+03, 0.000000000000000000e+00, 1.000000000000000000e+00, 1.000000000000000000e+02
6.100000000000000000e+01, 5.809743999999999687e+03, 4.244103000000000065e+03, 4.143077000000000226e+03, 4.175385000000000218e+03, 5.818974000000000160e+03, 0.000000000000000000e+00, 1.000000000000000000e+00, 1.000000000000000000e+02
6.200000000000000000e+01, 5.834359000000000378e+03, 4.256409999999999854e+03, 4.155385000000000218e+03, 4.189230999999999767e+03, 5.843077000000000226e+03, 0.000000000000000000e+00, 1.000000000000000000e+00, 1.000000000000000000e+02
6.300000000000000000e+01, 5.838974000000000160e+03, 4.254359000000000378e+03, 4.160000000000000000e+03, 4.188204999999999927e+03, 5.852820999999999913e+03, 0.000000000000000000e+00, 1.000000000000000000e+00, 1.000000000000000000e+02
6.400000000000000000e+01, 5.839487000000000080e+03, 4.235896999999999935e+03, 4.156922999999999774e+03, 4.186667000000000371e+03, 5.855896999999999935e+03, 0.000000000000000000e+00, 1.000000000000000000e+00, 1.000000000000000000e+02
6.500000000000000000e+01, 5.857435999999999694e+03, 4.237948999999999614e+03, 4.168204999999999927e+03, 4.204103000000000065e+03, 5.889743999999999687e+03, 0.000000000000000000e+00, 1.000000000000000000e+00, 1.000000000000000000e+02
6.600000000000000000e+01, 5.880000000000000000e+03, 4.254359000000000378e+03, 4.182564000000000306e+03, 4.225127999999999702e+03, 5.930256000000000313e+03, 0.000000000000000000e+00, 1.000000000000000000e+00, 1.000000000000000000e+02
6.700000000000000000e+01, 5.889230999999999767e+03, 4.242051000000000386e+03, 4.183590000000000146e+03, 4.229230999999999767e+03, 5.937435999999999694e+03, 0.000000000000000000e+00, 1.000000000000000000e+00, 1.000000000000000000e+02
6.800000000000000000e+01, 5.883077000000000226e+03, 4.231795000000000073e+03, 4.178974000000000160e+03, 4.217948999999999614e+03, 5.923590000000000146e+03, 0.000000000000000000e+00, 1.000000000000000000e+00, 1.000000000000000000e+02
6.900000000000000000e+01, 5.873845999999999549e+03, 4.248204999999999927e+03, 4.170256000000000313e+03, 4.213845999999999549e+03, 5.916409999999999854e+03, 0.000000000000000000e+00, 1.000000000000000000e+00, 1.000000000000000000e+02
7.000000000000000000e+01, 5.870769000000000233e+03, 4.248204999999999927e+03, 4.167692000000000007e+03, 4.219487000000000080e+03, 5.917435999999999694e+03, 0.000000000000000000e+00, 1.000000000000000000e+00, 1.000000000000000000e+02
7.100000000000000000e+01, 5.869230999999999767e+03, 4.229743999999999687e+03, 4.177435999999999694e+03, 4.220000000000000000e+03, 5.913845999999999549e+03, 0.000000000000000000e+00, 1.000000000000000000e+00, 1.000000000000000000e+02
7.200000000000000000e+01, 5.865127999999999702e+03, 4.233845999999999549e+03, 4.182564000000000306e+03, 4.214872000000000298e+03, 5.910769000000000233e+03, 0.000000000000000000e+00, 1.000000000000000000e+00, 1.000000000000000000e+02
7.300000000000000000e+01, 5.860512999999999920e+03, 4.244103000000000065e+03, 4.186667000000000371e+03, 4.220512999999999920e+03, 5.913845999999999549e+03, 0.000000000000000000e+00, 1.000000000000000000e+00, 1.000000000000000000e+02
7.400000000000000000e+01, 5.850769000000000233e+03, 4.237948999999999614e+03, 4.192820999999999913e+03, 4.230256000000000313e+03, 5.909230999999999767e+03, 0.000000000000000000e+00, 1.000000000000000000e+00, 1.000000000000000000e+02
7.500000000000000000e+01, 5.835896999999999935e+03, 4.223590000000000146e+03, 4.190769000000000233e+03, 4.225640999999999622e+03, 5.898462000000000444e+03, 0.000000000000000000e+00, 1.000000000000000000e+00, 1.000000000000000000e+02
7.600000000000000000e+01, 5.817948999999999614e+03, 4.219487000000000080e+03, 4.178974000000000160e+03, 4.213332999999999629e+03, 5.888717999999999847e+03, 0.000000000000000000e+00, 1.000000000000000000e+00, 1.000000000000000000e+02
7.700000000000000000e+01, 5.808717999999999847e+03, 4.225640999999999622e+03, 4.181025999999999840e+03, 4.210256000000000313e+03, 5.883590000000000146e+03, 0.000000000000000000e+00, 1.000000000000000000e+00, 1.000000000000000000e+02
7.800000000000000000e+01, 5.806154000000000451e+03, 4.223590000000000146e+03, 4.196922999999999774e+03, 4.208717999999999847e+03, 5.889230999999999767e+03, 0.000000000000000000e+00, 1.000000000000000000e+00, 1.000000000000000000e+02
7.900000000000000000e+01, 5.785127999999999702e+03, 4.211282000000000153e+03, 4.189743999999999687e+03, 4.193845999999999549e+03, 5.871282000000000153e+03, 0.000000000000000000e+00, 1.000000000000000000e+00, 1.000000000000000000e+02
8.000000000000000000e+01, 5.781537999999999556e+03, 4.217435999999999694e+03, 4.177435999999999694e+03, 4.191795000000000073e+03, 5.858462000000000444e+03, 0.000000000000000000e+00, 1.000000000000000000e+00, 1.000000000000000000e+02
8.100000000000000000e+01, 5.806154000000000451e+03, 4.235896999999999935e+03, 4.183590000000000146e+03, 4.203077000000000226e+03, 5.875896999999999935e+03, 0.000000000000000000e+00, 1.000000000000000000e+00, 1.000000000000000000e+02
8.200000000000000000e+01, 5.805127999999999702e+03, 4.233845999999999549e+03, 4.188204999999999927e+03, 4.205127999999999702e+03, 5.876922999999999774e+03, 0.000000000000000000e+00, 1.000000000000000000e+00, 1.000000000000000000e+02
8.300000000000000000e+01, 5.785127999999999702e+03, 4.227692000000000007e+03, 4.191282000000000153e+03, 4.209230999999999767e+03, 5.879487000000000080e+03, 0.000000000000000000e+00, 1.000000000000000000e+00, 1.000000000000000000e+02
8.400000000000000000e+01, 5.770256000000000313e+03, 4.235896999999999935e+03, 4.187179000000000087e+03, 4.213332999999999629e+03, 5.887692000000000007e+03, 0.000000000000000000e+00, 1.000000000000000000e+00, 1.000000000000000000e+02
8.500000000000000000e+01, 5.762564000000000306e+03, 4.227692000000000007e+03, 4.176922999999999774e+03, 4.216922999999999774e+03, 5.889230999999999767e+03, 0.000000000000000000e+00, 1.000000000000000000e+00, 1.000000000000000000e+02
8.600000000000000000e+01, 5.767179000000000087e+03, 4.219487000000000080e+03, 4.175385000000000218e+03, 4.220512999999999920e+03, 5.892307999999999993e+03, 0.000000000000000000e+00, 1.000000000000000000e+00, 1.000000000000000000e+02
8.700000000000000000e+01, 5.764103000000000065e+03, 4.227692000000000007e+03, 4.174359000000000378e+03, 4.212820999999999913e+03, 5.887179000000000087e+03, 0.000000000000000000e+00, 1.000000000000000000e+00, 1.000000000000000000e+02
8.800000000000000000e+01, 5.753332999999999629e+03, 4.227692000000000007e+03, 4.175385000000000218e+03, 4.215385000000000218e+03, 5.884614999999999782e+03, 0.000000000000000000e+00, 1.000000000000000000e+00, 1.000000000000000000e+02
8.900000000000000000e+01, 5.732820999999999913e+03, 4.215385000000000218e+03, 4.170256000000000313e+03, 4.222564000000000306e+03, 5.865640999999999622e+03, 0.000000000000000000e+00, 1.000000000000000000e+00, 1.000000000000000000e+02
9.000000000000000000e+01, 5.718974000000000160e+03, 4.213332999999999629e+03, 4.170256000000000313e+03, 4.212307999999999993e+03, 5.852820999999999913e+03, 0.000000000000000000e+00, 1.000000000000000000e+00, 1.000000000000000000e+02
9.100000000000000000e+01, 5.730256000000000313e+03, 4.219487000000000080e+03, 4.188204999999999927e+03, 4.210256000000000313e+03, 5.876922999999999774e+03, 0.000000000000000000e+00, 1.000000000000000000e+00, 1.000000000000000000e+02
9.200000000000000000e+01, 5.730769000000000233e+03, 4.221537999999999556e+03, 4.199487000000000080e+03, 4.221537999999999556e+03, 5.890256000000000313e+03, 0.000000000000000000e+00, 1.000000000000000000e+00, 1.000000000000000000e+02
9.300000000000000000e+01, 5.726667000000000371e+03, 4.223590000000000146e+03, 4.211282000000000153e+03, 4.224103000000000065e+03, 5.897948999999999614e+03, 0.000000000000000000e+00, 1.000000000000000000e+00, 1.000000000000000000e+02
9.400000000000000000e+01, 5.727692000000000007e+03, 4.229743999999999687e+03, 4.211795000000000073e+03, 4.221537999999999556e+03, 5.904614999999999782e+03, 0.000000000000000000e+00, 1.000000000000000000e+00, 1.000000000000000000e+02
9.500000000000000000e+01, 5.715896999999999935e+03, 4.233845999999999549e+03, 4.198974000000000160e+03, 4.224103000000000065e+03, 5.898974000000000160e+03, 0.000000000000000000e+00, 1.000000000000000000e+00, 1.000000000000000000e+02
9.600000000000000000e+01, 5.701025999999999840e+03, 4.227692000000000007e+03, 4.196922999999999774e+03, 4.227179000000000087e+03, 5.897435999999999694e+03, 0.000000000000000000e+00, 1.000000000000000000e+00, 1.000000000000000000e+02
9.700000000000000000e+01, 5.695385000000000218e+03, 4.223590000000000146e+03, 4.194872000000000298e+03, 4.229230999999999767e+03, 5.896409999999999854e+03, 0.000000000000000000e+00, 1.000000000000000000e+00, 1.000000000000000000e+02
9.800000000000000000e+01, 5.694359000000000378e+03, 4.227692000000000007e+03, 4.187179000000000087e+03, 4.228717999999999847e+03, 5.888717999999999847e+03, 0.000000000000000000e+00, 1.000000000000000000e+00, 1.000000000000000000e+02
9.900000000000000000e+01, 5.678974000000000160e+03, 4.229743999999999687e+03, 4.181025999999999840e+03, 4.212820999999999913e+03, 5.873332999999999629e+03, 0.000000000000000000e+00, 1.000000000000000000e+00, 1.000000000000000000e+02
1.000000000000000000e+02, 5.667692000000000007e+03, 4.229743999999999687e+03, 4.181537999999999556e+03, 4.196922999999999774e+03, 5.867692000000000007e+03, 0.000000000000000000e+00, 1.000000000000000000e+00, 1.000000000000000000e+02
1.010000000000000000e+02, 5.677435999999999694e+03, 4.231795000000000073e+03, 4.187692000000000007e+03, 4.205127999999999702e+03, 5.881025999999999840e+03, 0.000000000000000000e+00, 1.000000000000000000e+00, 1.000000000000000000e+02
1.020000000000000000e+02, 5.688717999999999847e+03, 4.235896999999999935e+03, 4.193332999999999629e+03, 4.228204999999999927e+03, 5.892307999999999993e+03, 0.000000000000000000e+00, 1.000000000000000000e+00, 1.000000000000000000e+02
1.030000000000000000e+02, 5.687692000000000007e+03, 4.242051000000000386e+03, 4.202564000000000306e+03, 4.230769000000000233e+03, 5.893845999999999549e+03, 0.000000000000000000e+00, 1.000000000000000000e+00, 1.000000000000000000e+02
1.040000000000000000e+02, 5.674359000000000378e+03, 4.246154000000000451e+03, 4.204614999999999782e+03, 4.212820999999999913e+03, 5.880000000000000000e+03, 0.000000000000000000e+00, 1.000000000000000000e+00, 1.000000000000000000e+02
1.050000000000000000e+02, 5.668204999999999927e+03, 4.248204999999999927e+03, 4.202564000000000306e+03, 4.213332999999999629e+03, 5.875385000000000218e+03, 0.000000000000000000e+00, 1.000000000000000000e+00, 1.000000000000000000e+02
1.060000000000000000e+02, 5.677948999999999614e+03, 4.248204999999999927e+03, 4.202564000000000306e+03, 4.228717999999999847e+03, 5.888204999999999927e+03, 0.000000000000000000e+00, 1.000000000000000000e+00, 1.000000000000000000e+02
1.070000000000000000e+02, 5.682051000000000386e+03, 4.246154000000000451e+03, 4.198974000000000160e+03, 4.228204999999999927e+03, 5.886667000000000371e+03, 0.000000000000000000e+00, 1.000000000000000000e+00, 1.000000000000000000e+02
1.080000000000000000e+02, 5.672820999999999913e+03, 4.246154000000000451e+03, 4.200512999999999920e+03, 4.218974000000000160e+03, 5.885127999999999702e+03, 0.000000000000000000e+00, 1.000000000000000000e+00, 1.000000000000000000e+02
1.090000000000000000e+02, 5.660000000000000000e+03, 4.244103000000000065e+03, 4.196409999999999854e+03, 4.217948999999999614e+03, 5.887179000000000087e+03, 0.000000000000000000e+00, 1.000000000000000000e+00, 1.000000000000000000e+02
1.100000000000000000e+02, 5.649230999999999767e+03, 4.233845999999999549e+03, 4.186154000000000451e+03, 4.220512999999999920e+03, 5.871282000000000153e+03, 0.000000000000000000e+00, 1.000000000000000000e+00, 1.000000000000000000e+02
1.110000000000000000e+02, 5.643590000000000146e+03, 4.227692000000000007e+03, 4.185640999999999622e+03, 4.216409999999999854e+03, 5.850769000000000233e+03, 0.000000000000000000e+00, 1.000000000000000000e+00, 1.000000000000000000e+02
1.120000000000000000e+02, 5.640000000000000000e+03, 4.231795000000000073e+03, 4.189743999999999687e+03, 4.208204999999999927e+03, 5.842564000000000306e+03, 0.000000000000000000e+00, 1.000000000000000000e+00, 1.000000000000000000e+02
1.130000000000000000e+02, 5.641537999999999556e+03, 4.233845999999999549e+03, 4.198974000000000160e+03, 4.218462000000000444e+03, 5.851282000000000153e+03, 0.000000000000000000e+00, 1.000000000000000000e+00, 1.000000000000000000e+02
1.140000000000000000e+02, 5.645640999999999622e+03, 4.227692000000000007e+03, 4.209230999999999767e+03, 4.234359000000000378e+03, 5.857948999999999614e+03, 0.000000000000000000e+00, 1.000000000000000000e+00, 1.000000000000000000e+02
1.150000000000000000e+02, 5.655385000000000218e+03, 4.231795000000000073e+03, 4.214359000000000378e+03, 4.232820999999999913e+03, 5.859487000000000080e+03, 0.000000000000000000e+00, 1.000000000000000000e+00, 1.000000000000000000e+02
1.160000000000000000e+02, 5.673845999999999549e+03, 4.258462000000000444e+03, 4.228717999999999847e+03, 4.234872000000000298e+03, 5.873845999999999549e+03, 0.000000000000000000e+00, 1.000000000000000000e+00, 1.000000000000000000e+02
1.170000000000000000e+02, 5.673845999999999549e+03, 4.266667000000000371e+03, 4.235896999999999935e+03, 4.239487000000000080e+03, 5.883077000000000226e+03, 0.000000000000000000e+00, 1.000000000000000000e+00, 1.000000000000000000e+02
1.180000000000000000e+02, 5.666154000000000451e+03, 4.246154000000000451e+03, 4.229743999999999687e+03, 4.235385000000000218e+03, 5.890769000000000233e+03, 0.000000000000000000e+00, 1.000000000000000000e+00, 1.000000000000000000e+02
1.190000000000000000e+02, 5.664614999999999782e+03, 4.250256000000000313e+03, 4.229230999999999767e+03, 4.242051000000000386e+03, 5.894359000000000378e+03, 0.000000000000000000e+00, 1.000000000000000000e+00, 1.000000000000000000e+02
1.200000000000000000e+02, 5.647692000000000007e+03, 4.266667000000000371e+03, 4.222564000000000306e+03, 4.245127999999999702e+03, 5.873332999999999629e+03, 0.000000000000000000e+00, 1.000000000000000000e+00, 1.000000000000000000e+02
1.210000000000000000e+02, 5.627692000000000007e+03, 4.254359000000000378e+03, 4.207179000000000087e+03, 4.228204999999999927e+03, 5.857948999999999614e+03, 0.000000000000000000e+00, 1.000000000000000000e+00, 1.000000000000000000e+02
1.220000000000000000e+02, 5.618462000000000444e+03, 4.244103000000000065e+03, 4.199487000000000080e+03, 4.217948999999999614e+03, 5.856409999999999854e+03, 0.000000000000000000e+00, 1.000000000000000000e+00, 1.000000000000000000e+02
1.230000000000000000e+02, 5.612307999999999993e+03, 4.250256000000000313e+03, 4.208717999999999847e+03, 4.225127999999999702e+03, 5.844103000000000065e+03, 0.000000000000000000e+00, 1.000000000000000000e+00, 1.000000000000000000e+02
1.240000000000000000e+02, 5.605640999999999622e+03, 4.252307999999999993e+03, 4.217435999999999694e+03, 4.222051000000000386e+03, 5.823590000000000146e+03, 0.000000000000000000e+00, 1.000000000000000000e+00, 1.000000000000000000e+02
1.250000000000000000e+02, 5.601537999999999556e+03, 4.246154000000000451e+03, 4.213845999999999549e+03, 4.211795000000000073e+03, 5.818462000000000444e+03, 0.000000000000000000e+00, 1.000000000000000000e+00, 1.000000000000000000e+02
1.260000000000000000e+02, 5.602564000000000306e+03, 4.246154000000000451e+03, 4.214359000000000378e+03, 4.220000000000000000e+03, 5.829230999999999767e+03, 0.000000000000000000e+00, 1.000000000000000000e+00, 1.000000000000000000e+02
1.270000000000000000e+02, 5.599487000000000080e+03, 4.248204999999999927e+03, 4.213845999999999549e+03, 4.228204999999999927e+03, 5.824614999999999782e+03, 0.000000000000000000e+00, 1.000000000000000000e+00, 1.000000000000000000e+02
0.000000000000000000e+00, 5.592307999999999993e+03, 4.244103000000000065e+03, 4.213332999999999629e+03, 4.220512999999999920e+03, 5.814359000000000378e+03, 0.000000000000000000e+00, 1.000000000000000000e+00, 1.000000000000000000e+02
1.000000000000000000e+00, 5.579487000000000080e+03, 4.240000000000000000e+03, 4.212820999999999913e+03, 4.215385000000000218e+03, 5.809743999999999687e+03, 0.000000000000000000e+00, 1.000000000000000000e+00, 1.000000000000000000e+02
2.000000000000000000e+00, 5.565127999999999702e+03, 4.244103000000000065e+03, 4.206154000000000451e+03, 4.223077000000000226e+03, 5.803077000000000226e+03, 0.000000000000000000e+00, 1.000000000000000000e+00, 1.000000000000000000e+02
3.000000000000000000e+00, 5.567692000000000007e+03, 4.250256000000000313e+03, 4.213332999999999629e+03, 4.226154000000000451e+03, 5.803590000000000146e+03, 0.000000000000000000e+00, 1.000000000000000000e+00, 1.000000000000000000e+02
4.000000000000000000e+00, 5.569743999999999687e+03, 4.248204999999999927e+03, 4.215896999999999935e+03, 4.224103000000000065e+03, 5.797435999999999694e+03, 0.000000000000000000e+00, 1.000000000000000000e+00, 1.000000000000000000e+02
5.000000000000000000e+00, 5.550769000000000233e+03, 4.246154000000000451e+03, 4.196922999999999774e+03, 4.229743999999999687e+03, 5.783590000000000146e+03, 0.000000000000000000e+00, 1.000000000000000000e+00, 1.000000000000000000e+02
6.000000000000000000e+00, 5.536409999999999854e+03, 4.246154000000000451e+03, 4.192820999999999913e+03, 4.233845999999999549e+03, 5.778462000000000444e+03, 0.000000000000000000e+00, 1.000000000000000000e+00, 1.000000000000000000e+02
7.000000000000000000e+00, 5.541537999999999556e+03, 4.250256000000000313e+03, 4.212820999999999913e+03, 4.233845999999999549e+03, 5.780512999999999920e+03, 0.000000000000000000e+00, 1.000000000000000000e+00, 1.000000000000000000e+02
8.000000000000000000e+00, 5.542564000000000306e+03, 4.256409999999999854e+03, 4.221537999999999556e+03, 4.237435999999999694e+03, 5.790256000000000313e+03, 0.000000000000000000e+00, 1.000000000000000000e+00, 1.000000000000000000e+02
9.000000000000000000e+00, 5.526667000000000371e+03, 4.252307999999999993e+03, 4.210256000000000313e+03, 4.234872000000000298e+03, 5.790256000000000313e+03, 0.000000000000000000e+00, 1.000000000000000000e+00, 1.000000000000000000e+02
1.000000000000000000e+01, 5.520512999999999920e+03, 4.248204999999999927e+03, 4.210769000000000233e+03, 4.229230999999999767e+03, 5.775896999999999935e+03, 0.000000000000000000e+00, 1.000000000000000000e+00, 1.000000000000000000e+02
1.100000000000000000e+01, 5.524103000000000065e+03, 4.244103000000000065e+03, 4.215896999999999935e+03, 4.232820999999999913e+03, 5.766667000000000371e+03, 0.000000000000000000e+00, 1.000000000000000000e+00, 1.000000000000000000e+02
1.200000000000000000e+01, 5.509230999999999767e+03, 4.242051000000000386e+03, 4.201025999999999840e+03, 4.229230999999999767e+03, 5.760000000000000000e+03, 0.000000000000000000e+00, 1.000000000000000000e+00, 1.000000000000000000e+02
1.300000000000000000e+01, 5.486667000000000371e+03, 4.242051000000000386e+03, 4.193845999999999549e+03, 4.217435999999999694e+03, 5.752307999999999993e+03, 0.000000000000000000e+00, 1.000000000000000000e+00, 1.000000000000000000e+02
1.400000000000000000e+01, 5.469743999999999687e+03, 4.240000000000000000e+03, 4.200000000000000000e+03, 4.209743999999999687e+03, 5.732820999999999913e+03, 0.000000000000000000e+00, 1.000000000000000000e+00, 1.000000000000000000e+02
1.500000000000000000e+01, 5.458462000000000444e+03, 4.229743999999999687e+03, 4.197435999999999694e+03, 4.208717999999999847e+03, 5.711282000000000153e+03, 0.000000000000000000e+00, 1.000000000000000000e+00, 1.000000000000000000e+02
1.600000000000000000e+01, 5.454359000000000378e+03, 4.229743999999999687e+03, 4.187692000000000007e+03, 4.211282000000000153e+03, 5.705640999999999622e+03, 0.000000000000000000e+00, 1.000000000000000000e+00, 1.000000000000000000e+02
1.700000000000000000e+01, 5.450256000000000313e+03, 4.240000000000000000e+03, 4.183077000000000226e+03, 4.208717999999999847e+03, 5.702051000000000386e+03, 0.000000000000000000e+00, 1.000000000000000000e+00, 1.000000000000000000e+02
1.800000000000000000e+01, 5.453332999999999629e+03, 4.233845999999999549e+03, 4.197435999999999694e+03, 4.208204999999999927e+03, 5.703077000000000226e+03, 0.000000000000000000e+00, 1.000000000000000000e+00, 1.000000000000000000e+02
1.900000000000000000e+01, 5.457948999999999614e+03, 4.229743999999999687e+03, 4.212307999999999993e+03, 4.214872000000000298e+03, 5.703077000000000226e+03, 0.000000000000000000e+00, 1.000000000000000000e+00, 1.000000000000000000e+02
2.000000000000000000e+01, 5.449743999999999687e+03, 4.237948999999999614e+03, 4.216922999999999774e+03, 4.223590000000000146e+03, 5.698974000000000160e+03, 0.000000000000000000e+00, 1.000000000000000000e+00, 1.000000000000000000e+02
2.100000000000000000e+01, 5.447692000000000007e+03, 4.244103000000000065e+03, 4.226667000000000371e+03, 4.230769000000000233e+03, 5.710256000000000313e+03, 0.000000000000000000e+00, 1.000000000000000000e+00, 1.000000000000000000e+02
2.200000000000000000e+01, 5.447692000000000007e+03, 4.246154000000000451e+03, 4.227179000000000087e+03, 4.227179000000000087e+03, 5.709743999999999687e+03, 0.000000000000000000e+00, 1.000000000000000000e+00, 1.000000000000000000e+02
2.300000000000000000e+01, 5.438462000000000444e+03, 4.250256000000000313e+03, 4.216409999999999854e+03, 4.221537999999999556e+03, 5.692307999999999993e+03, 0.000000000000000000e+00, 1.000000000000000000e+00, 1.000000000000000000e+02
2.400000000000000000e+01, 5.425127999999999702e+03, 4.248204999999999927e+03, 4.216409999999999854e+03, 4.225127999999999702e+03, 5.684614999999999782e+03, 0.000000000000000000e+00, 1.000000000000000000e+00, 1.000000000000000000e+02
2.500000000000000000e+01, 5.412820999999999913e+03, 4.240000000000000000e+03, 4.224614999999999782e+03, 4.229743999999999687e+03, 5.684614999999999782e+03, 0.000000000000000000e+00, 1.000000000000000000e+00, 1.000000000000000000e+02
2.600000000000000000e+01, 5.405127999999999702e+03, 4.240000000000000000e+03, 4.231282000000000153e+03, 4.232307999999999993e+03, 5.678974000000000160e+03, 0.000000000000000000e+00, 1.000000000000000000e+00, 1.000000000000000000e+02
2.700000000000000000e+01, 5.389230999999999767e+03, 4.246154000000000451e+03, 4.221537999999999556e+03, 4.228204999999999927e+03, 5.660512999999999920e+03, 0.000000000000000000e+00, 1.000000000000000000e+00, 1.000000000000000000e+02
2.800000000000000000e+01, 5.370256000000000313e+03, 4.240000000000000000e+03, 4.212307999999999993e+03, 4.215385000000000218e+03, 5.648717999999999847e+03, 0.000000000000000000e+00, 1.000000000000000000e+00, 1.000000000000000000e+02
2.900000000000000000e+01, 5.371282000000000153e+03, 4.235896999999999935e+03, 4.221537999999999556e+03, 4.216409999999999854e+03, 5.649743999999999687e+03, 0.000000000000000000e+00, 1.000000000000000000e+00, 1.000000000000000000e+02
3.000000000000000000e+01, 5.379487000000000080e+03, 4.248204999999999927e+03, 4.230256000000000313e+03, 4.227179000000000087e+03, 5.640000000000000000e+03, 0.000000000000000000e+00, 1.000000000000000000e+00, 1.000000000000000000e+02
3.100000000000000000e+01, 5.368204999999999927e+03, 4.252307999999999993e+03, 4.224614999999999782e+03, 4.219487000000000080e+03, 5.626154000000000451e+03, 0.000000000000000000e+00, 1.000000000000000000e+00, 1.000000000000000000e+02
3.200000000000000000e+01, 5.343590000000000146e+03, 4.244103000000000065e+03, 4.208204999999999927e+03, 4.206667000000000371e+03, 5.614872000000000298e+03, 0.000000000000000000e+00, 1.000000000000000000e+00, 1.000000000000000000e+02
3.300000000000000000e+01, 5.333332999999999629e+03, 4.244103000000000065e+03, 4.196409999999999854e+03, 4.214359000000000378e+03, 5.611282000000000153e+03, 0.000000000000000000e+00, 1.000000000000000000e+00, 1.000000000000000000e+02
3.400000000000000000e+01, 5.328717999999999847e+03, 4.250256000000000313e+03, 4.196922999999999774e+03, 4.221025999999999840e+03, 5.613332999999999629e+03, 0.000000000000000000e+00, 1.000000000000000000e+00, 1.000000000000000000e+02
3.500000000000000000e+01, 5.315385000000000218e+03, 4.244103000000000065e+03, 4.198462000000000444e+03, 4.209230999999999767e+03, 5.602564000000000306e+03, 0.000000000000000000e+00, 1.000000000000000000e+00, 1.000000000000000000e+02
3.600000000000000000e+01, 5.311282000000000153e+03, 4.246154000000000451e+03, 4.202564000000000306e+03, 4.212307999999999993e+03, 5.598462000000000444e+03, 0.000000000000000000e+00, 1.000000000000000000e+00, 1.000000000000000000e+02
3.700000000000000000e+01, 5.309230999999999767e+03, 4.258462000000000444e+03, 4.205640999999999622e+03, 4.225640999999999622e+03, 5.607692000000000007e+03, 0.000000000000000000e+00, 1.000000000000000000e+00, 1.000000000000000000e+02
3.800000000000000000e+01, 5.293845999999999549e+03, 4.262564000000000306e+03, 4.209230999999999767e+03, 4.225127999999999702e+03, 5.605640999999999622e+03, 0.000000000000000000e+00, 1.000000000000000000e+00, 1.000000000000000000e+02
3.900000000000000000e+01, 5.286667000000000371e+03, 4.262564000000000306e+03, 4.218462000000000444e+03, 4.222051000000000386e+03, 5.592820999999999913e+03, 0.000000000000000000e+00, 1.000000000000000000e+00, 1.000000000000000000e+02
4.000000000000000000e+01, 5.284614999999999782e+03, 4.268717999999999847e+03, 4.215385000000000218e+03, 4.217948999999999614e+03, 5.584103000000000065e+03, 0.000000000000000000e+00, 1.000000000000000000e+00, 1.000000000000000000e+02
4.100000000000000000e+01, 5.271282000000000153e+03, 4.258462000000000444e+03, 4.209230999999999767e+03, 4.205127999999999702e+03, 5.583590000000000146e+03, 0.000000000000000000e+00, 1.000000000000000000e+00, 1.000000000000000000e+02
4.200000000000000000e+01, 5.252820999999999913e+03, 4.250256000000000313e+03, 4.206667000000000371e+03, 4.200000000000000000e+03, 5.566154000000000451e+03, 0.000000000000000000e+00, 1.000000000000000000e+00, 1.000000000000000000e+02
4.300000000000000000e+01, 5.246154000000000451e+03, 4.254359000000000378e+03, 4.202051000000000386e+03, 4.220000000000000000e+03, 5.547692000000000007e+03, 0.000000000000000000e+00, 1.000000000000000000e+00, 1.000000000000000000e+02
4.400000000000000000e+01, 5.248717999999999847e+03, 4.256409999999999854e+03, 4.203590000000000146e+03, 4.229230999999999767e+03, 5.550769000000000233e+03, 0.000000000000000000e+00, 1.000000000000000000e+00, 1.000000000000000000e+02
4.500000000000000000e+01, 5.242564000000000306e+03, 4.256409999999999854e+03, 4.204614999999999782e+03, 4.209743999999999687e+03, 5.547692000000000007e+03, 0.000000000000000000e+00, 1.000000000000000000e+00, 1.000000000000000000e+02
4.600000000000000000e+01, 5.232307999999999993e+03, 4.260512999999999920e+03, 4.205127999999999702e+03, 4.200000000000000000e+03, 5.536409999999999854e+03, 0.000000000000000000e+00, 1.000000000000000000e+00, 1.000000000000000000e+02
4.700000000000000000e+01, 5.222051000000000386e+03, 4.264614999999999782e+03, 4.210256000000000313e+03, 4.208717999999999847e+03, 5.527692000000000007e+03, 0.000000000000000000e+00, 1.000000000000000000e+00, 1.000000000000000000e+02
4.800000000000000000e+01, 5.221025999999999840e+03, 4.268717999999999847e+03, 4.218974000000000160e+03, 4.218462000000000444e+03, 5.525640999999999622e+03, 0.000000000000000000e+00, 1.000000000000000000e+00, 1.000000000000000000e+02
4.900000000000000000e+01, 5.234359000000000378e+03, 4.272820999999999913e+03, 4.226154000000000451e+03, 4.227692000000000007e+03, 5.535896999999999935e+03, 0.000000000000000000e+00, 1.000000000000000000e+00, 1.000000000000000000e+02
5.000000000000000000e+01, 5.231282000000000153e+03, 4.266667000000000371e+03, 4.216922999999999774e+03, 4.225640999999999622e+03, 5.535896999999999935e+03, 0.000000000000000000e+00, 1.000000000000000000e+00, 1.000000000000000000e+02
5.100000000000000000e+01, 5.213332999999999629e+03, 4.262564000000000306e+03, 4.206667000000000371e+03, 4.211795000000000073e+03, 5.527692000000000007e+03, 0.000000000000000000e+00, 1.000000000000000000e+00, 1.000000000000000000e+02
5.200000000000000000e+01, 5.197435999999999694e+03, 4.264614999999999782e+03, 4.202564000000000306e+03, 4.204103000000000065e+03, 5.511282000000000153e+03, 0.000000000000000000e+00, 1.000000000000000000e+00, 1.000000000000000000e+02
5.300000000000000000e+01, 5.183590000000000146e+03, 4.260512999999999920e+03, 4.200512999999999920e+03, 4.206667000000000371e+03, 5.489743999999999687e+03, 0.000000000000000000e+00, 1.000000000000000000e+00, 1.000000000000000000e+02
5.400000000000000000e+01, 5.182051000000000386e+03, 4.256409999999999854e+03, 4.205640999999999622e+03, 4.211795000000000073e+03, 5.487692000000000007e+03, 0.000000000000000000e+00, 1.000000000000000000e+00, 1.000000000000000000e+02
5.500000000000000000e+01, 5.178462000000000444e+03, 4.256409999999999854e+03, 4.198974000000000160e+03, 4.212307999999999993e+03, 5.480000000000000000e+03, 0.000000000000000000e+00, 1.000000000000000000e+00, 1.000000000000000000e+02
5.600000000000000000e+01, 5.163590000000000146e+03, 4.248204999999999927e+03, 4.183077000000000226e+03, 4.202051000000000386e+03, 5.456922999999999774e+03, 0.000000000000000000e+00, 1.000000000000000000e+00, 1.000000000000000000e+02
5.700000000000000000e+01, 5.154359000000000378e+03, 4.244103000000000065e+03, 4.186667000000000371e+03, 4.183077000000000226e+03, 5.450769000000000233e+03, 0.000000000000000000e+00, 1.000000000000000000e+00, 1.000000000000000000e+02
5.800000000000000000e+01, 5.158462000000000444e+03, 4.250256000000000313e+03, 4.205640999999999622e+03, 4.188717999999999847e+03, 5.462564000000000306e+03, 0.000000000000000000e+00, 1.000000000000000000e+00, 1.000000000000000000e+02
5.900000000000000000e+01, 5.170256000000000313e+03, 4.258462000000000444e+03, 4.216409999999999854e+03, 4.219487000000000080e+03, 5.477435999999999694e+03, 0.000000000000000000e+00, 1.000000000000000000e+00, 1.000000000000000000e+02
6.000000000000000000e+01, 5.169743999999999687e+03, 4.264614999999999782e+03, 4.206154000000000451e+03, 4.232307999999999993e+03, 5.471795000000000073e+03, 0.000000000000000000e+00, 1.000000000000000000e+00, 1.000000000000000000e+02
6.100000000000000000e+01, 5.154872000000000298e+03, 4.266667000000000371e+03, 4.193845999999999549e+03, 4.225127999999999702e+03, 5.450769000000000233e+03, 0.000000000000000000e+00, 1.000000000000000000e+00, 1.000000000000000000e+02
6.200000000000000000e+01, 5.134359000000000378e+03, 4.256409999999999854e+03, 4.192307999999999993e+03, 4.220512999999999920e+03, 5.429230999999999767e+03, 0.000000000000000000e+00, 1.000000000000000000e+00, 1.000000000000000000e+02
6.300000000000000000e+01, 5.118974000000000160e+03, 4.248204999999999927e+03, 4.191795000000000073e+03, 4.217435999999999694e+03, 5.414872000000000298e+03, 0.000000000000000000e+00, 1.000000000000000000e+00, 1.000000000000000000e+02
6.400000000000000000e+01, 5.118974000000000160e+03, 4.254359000000000378e+03, 4.195385000000000218e+03, 4.214359000000000378e+03, 5.416409999999999854e+03, 0.000000000000000000e+00, 1.000000000000000000e+00, 1.000000000000000000e+02
6.500000000000000000e+01, 5.115385000000000218e+03, 4.256409999999999854e+03, 4.191282000000000153e+03, 4.198974000000000160e+03, 5.407179000000000087e+03, 0.000000000000000000e+00, 1.000000000000000000e+00, 1.000000000000000000e+02
6.600000000000000000e+01, 5.109230999999999767e+03, 4.248204999999999927e+03, 4.185640999999999622e+03, 4.177948999999999614e+03, 5.384614999999999782e+03, 0.000000000000000000e+00, 1.000000000000000000e+00, 1.000000000000000000e+02
6.700000000000000000e+01, 5.106154000000000451e+03, 4.246154000000000451e+03, 4.187692000000000007e+03, 4.175385000000000218e+03, 5.375385000000000218e+03, 0.000000000000000000e+00, 1.000000000000000000e+00, 1.000000000000000000e+02
6.800000000000000000e+01, 5.090256000000000313e+03, 4.244103000000000065e+03, 4.173332999999999629e+03, 4.176409999999999854e+03, 5.371282000000000153e+03, 0.000000000000000000e+00, 1.000000000000000000e+00, 1.000000000000000000e+02
6.900000000000000000e+01, 5.080000000000000000e+03, 4.240000000000000000e+03, 4.170256000000000313e+03, 4.178462000000000444e+03, 5.380512999999999920e+03, 0.000000000000000000e+00, 1.000000000000000000e+00, 1.000000000000000000e+02
7.000000000000000000e+01, 5.082564000000000306e+03, 4.244103000000000065e+03, 4.191282000000000153e+03, 4.194359000000000378e+03, 5.398462000000000444e+03, 0.000000000000000000e+00, 1.000000000000000000e+00, 1.000000000000000000e+02
7.100000000000000000e+01, 5.072307999999999993e+03, 4.244103000000000065e+03, 4.201537999999999556e+03, 4.213332999999999629e+03, 5.396409999999999854e+03, 0.000000000000000000e+00, 1.000000000000000000e+00, 1.000000000000000000e+02
7.200000000000000000e+01, 5.058974000000000160e+03, 4.244103000000000065e+03, 4.205640999999999622e+03, 4.233845999999999549e+03, 5.384614999999999782e+03, 0.000000000000000000e+00, 1.000000000000000000e+00, 1.000000000000000000e+02
7.300000000000000000e+01, 5.058974000000000160e+03, 4.256409999999999854e+03, 4.215896999999999935e+03, 4.247692000000000007e+03, 5.377435999999999694e+03, 0.000000000000000000e+00, 1.000000000000000000e+00, 1.000000000000000000e+02
7.400000000000000000e+01, 5.057435999999999694e+03, 4.262564000000000306e+03, 4.221537999999999556e+03, 4.243590000000000146e+03, 5.372820999999999913e+03, 0.000000000000000000e+00, 1.000000000000000000e+00, 1.000000000000000000e+02
7.500000000000000000e+01, 5.046667000000000371e+03, 4.254359000000000378e+03, 4.213332999999999629e+03, 4.233332999999999629e+03, 5.353845999999999549e+03, 0.000000000000000000e+00, 1.000000000000000000e+00, 1.000000000000000000e+02
7.600000000000000000e+01, 5.034872000000000298e+03, 4.248204999999999927e+03, 4.198974000000000160e+03, 4.228717999999999847e+03, 5.328204999999999927e+03, 0.000000000000000000e+00, 1.000000000000000000e+00, 1.000000000000000000e+02
7.700000000000000000e+01, 5.025127999999999702e+03, 4.244103000000000065e+03, 4.190256000000000313e+03, 4.212307999999999993e+03, 5.323077000000000226e+03, 0.000000000000000000e+00, 1.000000000000000000e+00, 1.000000000000000000e+02
7.800000000000000000e+01, 5.022564000000000306e+03, 4.246154000000000451e+03, 4.191282000000000153e+03, 4.193332999999999629e+03, 5.327179000000000087e+03, 0.000000000000000000e+00, 1.000000000000000000e+00, 1.000000000000000000e+02
7.900000000000000000e+01, 5.035896999999999935e+03, 4.254359000000000378e+03, 4.207692000000000007e+03, 4.199487000000000080e+03, 5.334359000000000378e+03, 0.000000000000000000e+00, 1.000000000000000000e+00, 1.000000000000000000e+02
8.000000000000000000e+01, 5.043077000000000226e+03, 4.254359000000000378e+03, 4.216409999999999854e+03, 4.207179000000000087e+03, 5.340512999999999920e+03, 0.000000000000000000e+00, 1.000000000000000000e+00, 1.000000000000000000e+02
8.100000000000000000e+01, 5.032307999999999993e+03, 4.254359000000000378e+03, 4.211795000000000073e+03, 4.191795000000000073e+03, 5.340000000000000000e+03, 0.000000000000000000e+00, 1.000000000000000000e+00, 1.000000000000000000e+02
8.200000000000000000e+01, 5.022564000000000306e+03, 4.258462000000000444e+03, 4.209743999999999687e+03, 4.178462000000000444e+03, 5.331282000000000153e+03, 0.000000000000000000e+00, 1.000000000000000000e+00, 1.000000000000000000e+02
8.300000000000000000e+01, 5.009230999999999767e+03, 4.254359000000000378e+03, 4.201537999999999556e+03, 4.192307999999999993e+03, 5.308204999999999927e+03, 0.000000000000000000e+00, 1.000000000000000000e+00, 1.000000000000000000e+02
8.400000000000000000e+01, 4.997435999999999694e+03, 4.244103000000000065e+03, 4.193332999999999629e+03, 4.217435999999999694e+03, 5.293845999999999549e+03, 0.000000000000000000e+00, 1.000000000000000000e+00, 1.000000000000000000e+02
8.500000000000000000e+01, 4.988717999999999847e+03, 4.248204999999999927e+03, 4.188717999999999847e+03, 4.221025999999999840e+03, 5.286154000000000451e+03, 0.000000000000000000e+00, 1.000000000000000000e+00, 1.000000000000000000e+02
8.600000000000000000e+01, 4.976409999999999854e+03, 4.252307999999999993e+03, 4.179487000000000080e+03, 4.208717999999999847e+03, 5.267179000000000087e+03, 0.000000000000000000e+00, 1.000000000000000000e+00, 1.000000000000000000e+02
8.700000000000000000e+01, 4.968204999999999927e+03, 4.242051000000000386e+03, 4.174359000000000378e+03, 4.195896999999999935e+03, 5.257948999999999614e+03, 0.000000000000000000e+00, 1.000000000000000000e+00, 1.000000000000000000e+02
8.800000000000000000e+01, 4.954872000000000298e+03, 4.237948999999999614e+03, 4.174359000000000378e+03, 4.183590000000000146e+03, 5.251795000000000073e+03, 0.000000000000000000e+00, 1.000000000000000000e+00, 1.000000000000000000e+02
8.900000000000000000e+01, 4.941537999999999556e+03, 4.244103000000000065e+03, 4.178462000000000444e+03, 4.182564000000000306e+03, 5.243590000000000146e+03, 0.000000000000000000e+00, 1.000000000000000000e+00, 1.000000000000000000e+02
9.000000000000000000e+01, 4.941025999999999840e+03, 4.246154000000000451e+03, 4.190256000000000313e+03, 4.191795000000000073e+03, 5.243077000000000226e+03, 0.000000000000000000e+00, 1.000000000000000000e+00, 1.000000000000000000e+02
9.100000000000000000e+01, 4.940512999999999920e+03, 4.242051000000000386e+03, 4.198974000000000160e+03, 4.194359000000000378e+03, 5.246154000000000451e+03, 0.000000000000000000e+00, 1.000000000000000000e+00, 1.000000000000000000e+02
9.200000000000000000e+01, 4.941537999999999556e+03, 4.252307999999999993e+03, 4.200000000000000000e+03, 4.202051000000000386e+03, 5.257948999999999614e+03, 0.000000000000000000e+00, 1.000000000000000000e+00, 1.000000000000000000e+02
9.300000000000000000e+01, 4.945640999999999622e+03, 4.268717999999999847e+03, 4.201537999999999556e+03, 4.213332999999999629e+03, 5.260000000000000000e+03, 0.000000000000000000e+00, 1.000000000000000000e+00, 1.000000000000000000e+02
9.400000000000000000e+01, 4.941537999999999556e+03, 4.262564000000000306e+03, 4.206154000000000451e+03, 4.200000000000000000e+03, 5.246154000000000451e+03, 0.000000000000000000e+00, 1.000000000000000000e+00, 1.000000000000000000e+02
9.500000000000000000e+01, 4.933845999999999549e+03, 4.250256000000000313e+03, 4.210769000000000233e+03, 4.194359000000000378e+03, 5.246667000000000371e+03, 0.000000000000000000e+00, 1.000000000000000000e+00, 1.000000000000000000e+02
9.600000000000000000e+01, 4.924103000000000065e+03, 4.256409999999999854e+03, 4.202051000000000386e+03, 4.208204999999999927e+03, 5.239487000000000080e+03, 0.000000000000000000e+00, 1.000000000000000000e+00, 1.000000000000000000e+02
9.700000000000000000e+01, 4.916409999999999854e+03, 4.250256000000000313e+03, 4.190256000000000313e+03, 4.203077000000000226e+03, 5.211795000000000073e+03, 0.000000000000000000e+00, 1.000000000000000000e+00, 1.000000000000000000e+02
9.800000000000000000e+01, 4.911795000000000073e+03, 4.231795000000000073e+03, 4.184614999999999782e+03, 4.187692000000000007e+03, 5.190769000000000233e+03, 0.000000000000000000e+00, 1.000000000000000000e+00, 1.000000000000000000e+02
9.900000000000000000e+01, 4.905127999999999702e+03, 4.237948999999999614e+03, 4.178462000000000444e+03, 4.184614999999999782e+03, 5.191282000000000153e+03, 0.000000000000000000e+00, 1.000000000000000000e+00, 1.000000000000000000e+02
1.000000000000000000e+02, 4.892820999999999913e+03, 4.248204999999999927e+03, 4.170256000000000313e+03, 4.184614999999999782e+03, 5.185127999999999702e+03, 0.000000000000000000e+00, 1.000000000000000000e+00, 1.000000000000000000e+02
1.010000000000000000e+02, 4.876409999999999854e+03, 4.246154000000000451e+03, 4.164614999999999782e+03, 4.181537999999999556e+03, 5.158974000000000160e+03, 0.000000000000000000e+00, 1.000000000000000000e+00, 1.000000000000000000e+02
1.020000000000000000e+02, 4.873332999999999629e+03, 4.242051000000000386e+03, 4.174872000000000298e+03, 4.187179000000000087e+03, 5.153845999999999549e+03, 0.000000000000000000e+00, 1.000000000000000000e+00, 1.000000000000000000e+02
1.030000000000000000e+02, 4.873845999999999549e+03, 4.252307999999999993e+03, 4.178462000000000444e+03, 4.192820999999999913e+03, 5.158974000000000160e+03, 0.000000000000000000e+00, 1.000000000000000000e+00, 1.000000000000000000e+02
1.040000000000000000e+02, 4.866154000000000451e+03, 4.250256000000000313e+03, 4.171282000000000153e+03, 4.193332999999999629e+03, 5.153332999999999629e+03, 0.000000000000000000e+00, 1.000000000000000000e+00, 1.000000000000000000e+02
1.050000000000000000e+02, 4.859487000000000080e+03, 4.237948999999999614e+03, 4.178974000000000160e+03, 4.196409999999999854e+03, 5.148717999999999847e+03, 0.000000000000000000e+00, 1.000000000000000000e+00, 1.000000000000000000e+02
1.060000000000000000e+02, 4.854872000000000298e+03, 4.237948999999999614e+03, 4.180512999999999920e+03, 4.204103000000000065e+03, 5.136922999999999774e+03, 0.000000000000000000e+00, 1.000000000000000000e+00, 1.000000000000000000e+02
1.070000000000000000e+02, 4.853845999999999549e+03, 4.244103000000000065e+03, 4.176409999999999854e+03, 4.225640999999999622e+03, 5.132820999999999913e+03, 0.000000000000000000e+00, 1.000000000000000000e+00, 1.000000000000000000e+02
1.080000000000000000e+02, 4.847692000000000007e+03, 4.246154000000000451e+03, 4.178974000000000160e+03, 4.231795000000000073e+03, 5.140000000000000000e+03, 0.000000000000000000e+00, 1.000000000000000000e+00, 1.000000000000000000e+02
1.090000000000000000e+02, 4.837435999999999694e+03, 4.242051000000000386e+03, 4.184614999999999782e+03, 4.215385000000000218e+03, 5.137435999999999694e+03, 0.000000000000000000e+00, 1.000000000000000000e+00, 1.000000000000000000e+02
1.100000000000000000e+02, 4.834359000000000378e+03, 4.233845999999999549e+03, 4.188204999999999927e+03, 4.208204999999999927e+03, 5.123590000000000146e+03, 0.000000000000000000e+00, 1.000000000000000000e+00, 1.000000000000000000e+02
1.110000000000000000e+02, 4.821025999999999840e+03, 4.223590000000000146e+03, 4.180000000000000000e+03, 4.206154000000000451e+03, 5.102564000000000306e+03, 0.000000000000000000e+00, 1.000000000000000000e+00, 1.000000000000000000e+02
1.120000000000000000e+02, 4.807692000000000007e+03, 4.225640999999999622e+03, 4.178462000000000444e+03, 4.205640999999999622e+03, 5.103077000000000226e+03, 0.000000000000000000e+00, 1.000000000000000000e+00, 1.000000000000000000e+02
1.130000000000000000e+02, 4.807692000000000007e+03, 4.244103000000000065e+03, 4.190256000000000313e+03, 4.212307999999999993e+03, 5.110256000000000313e+03, 0.000000000000000000e+00, 1.000000000000000000e+00, 1.000000000000000000e+02
1.140000000000000000e+02, 4.806154000000000451e+03, 4.252307999999999993e+03, 4.200512999999999920e+03, 4.212307999999999993e+03, 5.098462000000000444e+03, 0.000000000000000000e+00, 1.000000000000000000e+00, 1.000000000000000000e+02
1.150000000000000000e+02, 4.804614999999999782e+03, 4.258462000000000444e+03, 4.211795000000000073e+03, 4.215896999999999935e+03, 5.094359000000000378e+03, 0.000000000000000000e+00, 1.000000000000000000e+00, 1.000000000000000000e+02
1.160000000000000000e+02, 4.806667000000000371e+03, 4.268717999999999847e+03, 4.211795000000000073e+03, 4.227692000000000007e+03, 5.103077000000000226e+03, 0.000000000000000000e+00, 1.000000000000000000e+00, 1.000000000000000000e+02
1.170000000000000000e+02, 4.802564000000000306e+03, 4.266667000000000371e+03, 4.204103000000000065e+03, 4.228204999999999927e+03, 5.103590000000000146e+03, 0.000000000000000000e+00, 1.000000000000000000e+00, 1.000000000000000000e+02
1.180000000000000000e+02, 4.781025999999999840e+03, 4.262564000000000306e+03, 4.197948999999999614e+03, 4.219487000000000080e+03, 5.085127999999999702e+03, 0.000000000000000000e+00, 1.000000000000000000e+00, 1.000000000000000000e+02
1.190000000000000000e+02, 4.761025999999999840e+03, 4.262564000000000306e+03, 4.189743999999999687e+03, 4.219487000000000080e+03, 5.065640999999999622e+03, 0.000000000000000000e+00, 1.000000000000000000e+00, 1.000000000000000000e+02
1.200000000000000000e+02, 4.759487000000000080e+03, 4.262564000000000306e+03, 4.184103000000000065e+03, 4.220512999999999920e+03, 5.064103000000000065e+03, 0.000000000000000000e+00, 1.000000000000000000e+00, 1.000000000000000000e+02
1.210000000000000000e+02, 4.752820999999999913e+03, 4.260512999999999920e+03, 4.177435999999999694e+03, 4.210769000000000233e+03, 5.046667000000000371e+03, 0.000000000000000000e+00, 1.000000000000000000e+00, 1.000000000000000000e+02
1.220000000000000000e+02, 4.736922999999999774e+03, 4.260512999999999920e+03, 4.168717999999999847e+03, 4.199487000000000080e+03, 5.018974000000000160e+03, 0.000000000000000000e+00, 1.000000000000000000e+00, 1.000000000000000000e+02
1.230000000000000000e+02, 4.740000000000000000e+03, 4.262564000000000306e+03, 4.178462000000000444e+03, 4.203077000000000226e+03, 5.021537999999999556e+03, 0.000000000000000000e+00, 1.000000000000000000e+00, 1.000000000000000000e+02
1.240000000000000000e+02, 4.751282000000000153e+03, 4.268717999999999847e+03, 4.197435999999999694e+03, 4.208717999999999847e+03, 5.034359000000000378e+03, 0.000000000000000000e+00, 1.000000000000000000e+00, 1.000000000000000000e+02
1.250000000000000000e+02, 4.749743999999999687e+03, 4.272820999999999913e+03, 4.198462000000000444e+03, 4.200512999999999920e+03, 5.033845999999999549e+03, 0.000000000000000000e+00, 1.000000000000000000e+00, 1.000000000000000000e+02
1.260000000000000000e+02, 4.738462000000000444e+03, 4.274872000000000298e+03, 4.186667000000000371e+03, 4.195385000000000218e+03, 5.027692000000000007e+03, 0.000000000000000000e+00, 1.000000000000000000e+00, 1.000000000000000000e+02
1.270000000000000000e+02, 4.730769000000000233e+03, 4.281025999999999840e+03, 4.191795000000000073e+03, 4.211795000000000073e+03, 5.020512999999999920e+03, 0.000000000000000000e+00, 1.000000000000000000e+00, 1.000000000000000000e+02
0.000000000000000000e+00, 4.731282000000000153e+03, 4.281025999999999840e+03, 4.197435999999999694e+03, 4.222051000000000386e+03, 5.011795000000000073e+03, 0.000000000000000000e+00, 1.000000000000000000e+00, 1.000000000000000000e+02
1.000000000000000000e+00, 4.731795000000000073e+03, 4.276922999999999774e+03, 4.182564000000000306e+03, 4.210256000000000313e+03, 5.005127999999999702e+03, 0.000000000000000000e+00, 1.000000000000000000e+00, 1.000000000000000000e+02
2.000000000000000000e+00, 4.737435999999999694e+03, 4.278974000000000160e+03, 4.185640999999999622e+03, 4.206154000000000451e+03, 5.012307999999999993e+03, 0.000000000000000000e+00, 1.000000000000000000e+00, 1.000000000000000000e+02
3.000000000000000000e+00, 4.740512999999999920e+03, 4.285127999999999702e+03, 4.202051000000000386e+03, 4.224103000000000065e+03, 5.012820999999999913e+03, 0.000000000000000000e+00, 1.000000000000000000e+00, 1.000000000000000000e+02
4.000000000000000000e+00, 4.733845999999999549e+03, 4.278974000000000160e+03, 4.201537999999999556e+03, 4.236409999999999854e+03, 4.997948999999999614e+03, 0.000000000000000000e+00, 1.000000000000000000e+00, 1.000000000000000000e+02
5.000000000000000000e+00, 4.730256000000000313e+03, 4.274872000000000298e+03, 4.198974000000000160e+03, 4.224614999999999782e+03, 4.992307999999999993e+03, 0.000000000000000000e+00, 1.000000000000000000e+00, 1.000000000000000000e+02
6.000000000000000000e+00, 4.727179000000000087e+03, 4.276922999999999774e+03, 4.196409999999999854e+03, 4.208204999999999927e+03, 4.984614999999999782e+03, 0.000000000000000000e+00, 1.000000000000000000e+00, 1.000000000000000000e+02
7.000000000000000000e+00, 4.721537999999999556e+03, 4.281025999999999840e+03, 4.188717999999999847e+03, 4.205640999999999622e+03, 4.970769000000000233e+03, 0.000000000000000000e+00, 1.000000000000000000e+00, 1.000000000000000000e+02
8.000000000000000000e+00, 4.713845999999999549e+03, 4.283077000000000226e+03, 4.182564000000000306e+03, 4.200000000000000000e+03, 4.962051000000000386e+03, 0.000000000000000000e+00, 1.000000000000000000e+00, 1.000000000000000000e+02
9.000000000000000000e+00, 4.701537999999999556e+03, 4.278974000000000160e+03, 4.184103000000000065e+03, 4.189743999999999687e+03, 4.953332999999999629e+03, 0.000000000000000000e+00, 1.000000000000000000e+00, 1.000000000000000000e+02
1.000000000000000000e+01, 4.689743999999999687e+03, 4.281025999999999840e+03, 4.191282000000000153e+03, 4.194872000000000298e+03, 4.946667000000000371e+03, 0.000000000000000000e+00, 1.000000000000000000e+00, 1.000000000000000000e+02
1.100000000000000000e+01, 4.675896999999999935e+03, 4.281025999999999840e+03, 4.189230999999999767e+03, 4.210256000000000313e+03, 4.935896999999999935e+03, 0.000000000000000000e+00, 1.000000000000000000e+00, 1.000000000000000000e+02
1.200000000000000000e+01, 4.669743999999999687e+03, 4.274872000000000298e+03, 4.185640999999999622e+03, 4.221025999999999840e+03, 4.932307999999999993e+03, 0.000000000000000000e+00, 1.000000000000000000e+00, 1.000000000000000000e+02
1.300000000000000000e+01, 4.674359000000000378e+03, 4.278974000000000160e+03, 4.185640999999999622e+03, 4.218974000000000160e+03, 4.936409999999999854e+03, 0.000000000000000000e+00, 1.000000000000000000e+00, 1.000000000000000000e+02
1.400000000000000000e+01, 4.675385000000000218e+03, 4.281025999999999840e+03, 4.181537999999999556e+03, 4.210769000000000233e+03, 4.936409999999999854e+03, 0.000000000000000000e+00, 1.000000000000000000e+00, 1.000000000000000000e+02
1.500000000000000000e+01, 4.670769000000000233e+03, 4.270769000000000233e+03, 4.184614999999999782e+03, 4.213845999999999549e+03, 4.934359000000000378e+03, 0.000000000000000000e+00, 1.000000000000000000e+00, 1.000000000000000000e+02
1.600000000000000000e+01, 4.662051000000000386e+03, 4.262564000000000306e+03, 4.188717999999999847e+03, 4.224614999999999782e+03, 4.920000000000000000e+03, 0.000000000000000000e+00, 1.000000000000000000e+00, 1.000000000000000000e+02
1.700000000000000000e+01, 4.657948999999999614e+03, 4.256409999999999854e+03, 4.183077000000000226e+03, 4.232820999999999913e+03, 4.908717999999999847e+03, 0.000000000000000000e+00, 1.000000000000000000e+00, 1.000000000000000000e+02
1.800000000000000000e+01, 4.654359000000000378e+03, 4.252307999999999993e+03, 4.178974000000000160e+03, 4.227692000000000007e+03, 4.902051000000000386e+03, 0.000000000000000000e+00, 1.000000000000000000e+00, 1.000000000000000000e+02
1.900000000000000000e+01, 4.641537999999999556e+03, 4.246154000000000451e+03, 4.180000000000000000e+03, 4.212820999999999913e+03, 4.884614999999999782e+03, 0.000000000000000000e+00, 1.000000000000000000e+00, 1.000000000000000000e+02
2.000000000000000000e+01, 4.632307999999999993e+03, 4.248204999999999927e+03, 4.185127999999999702e+03, 4.208717999999999847e+03, 4.874359000000000378e+03, 0.000000000000000000e+00, 1.000000000000000000e+00, 1.000000000000000000e+02
2.100000000000000000e+01, 4.627692000000000007e+03, 4.262564000000000306e+03, 4.186667000000000371e+03, 4.199487000000000080e+03, 4.868717999999999847e+03, 0.000000000000000000e+00, 1.000000000000000000e+00, 1.000000000000000000e+02
2.200000000000000000e+01, 4.621537999999999556e+03, 4.274872000000000298e+03, 4.183077000000000226e+03, 4.187179000000000087e+03, 4.863077000000000226e+03, 0.000000000000000000e+00, 1.000000000000000000e+00, 1.000000000000000000e+02
2.300000000000000000e+01, 4.624614999999999782e+03, 4.270769000000000233e+03, 4.181537999999999556e+03, 4.199487000000000080e+03, 4.865127999999999702e+03, 0.000000000000000000e+00, 1.000000000000000000e+00, 1.000000000000000000e+02
2.400000000000000000e+01, 4.634359000000000378e+03, 4.266667000000000371e+03, 4.184614999999999782e+03, 4.210256000000000313e+03, 4.865127999999999702e+03, 0.000000000000000000e+00, 1.000000000000000000e+00, 1.000000000000000000e+02
2.500000000000000000e+01, 4.637948999999999614e+03, 4.268717999999999847e+03, 4.191282000000000153e+03, 4.208204999999999927e+03, 4.866667000000000371e+03, 0.000000000000000000e+00, 1.000000000000000000e+00, 1.000000000000000000e+02
2.600000000000000000e+01, 4.630769000000000233e+03, 4.260512999999999920e+03, 4.188204999999999927e+03, 4.215896999999999935e+03, 4.870256000000000313e+03, 0.000000000000000000e+00, 1.000000000000000000e+00, 1.000000000000000000e+02
2.700000000000000000e+01, 4.629743999999999687e+03, 4.246154000000000451e+03, 4.189230999999999767e+03, 4.223590000000000146e+03, 4.876922999999999774e+03, 0.000000000000000000e+00, 1.000000000000000000e+00, 1.000000000000000000e+02
2.800000000000000000e+01, 4.632307999999999993e+03, 4.246154000000000451e+03, 4.206667000000000371e+03, 4.217435999999999694e+03, 4.872820999999999913e+03, 0.000000000000000000e+00, 1.000000000000000000e+00, 1.000000000000000000e+02
2.900000000000000000e+01, 4.621537999999999556e+03, 4.258462000000000444e+03, 4.205127999999999702e+03, 4.217435999999999694e+03, 4.845640999999999622e+03, 0.000000000000000000e+00, 1.000000000000000000e+00, 1.000000000000000000e+02
3.000000000000000000e+01, 4.617948999999999614e+03, 4.260512999999999920e+03, 4.196922999999999774e+03, 4.231795000000000073e+03, 4.836922999999999774e+03, 0.000000000000000000e+00, 1.000000000000000000e+00, 1.000000000000000000e+02
3.100000000000000000e+01, 4.618974000000000160e+03, 4.248204999999999927e+03, 4.195896999999999935e+03, 4.235385000000000218e+03, 4.840000000000000000e+03, 0.000000000000000000e+00, 1.000000000000000000e+00, 1.000000000000000000e+02
3.200000000000000000e+01, 4.608717999999999847e+03, 4.246154000000000451e+03, 4.199487000000000080e+03, 4.229230999999999767e+03, 4.827179000000000087e+03, 0.000000000000000000e+00, 1.000000000000000000e+00, 1.000000000000000000e+02
3.300000000000000000e+01, 4.601025999999999840e+03, 4.254359000000000378e+03, 4.205127999999999702e+03, 4.230769000000000233e+03, 4.813845999999999549e+03, 0.000000000000000000e+00, 1.000000000000000000e+00, 1.000000000000000000e+02
3.400000000000000000e+01, 4.594359000000000378e+03, 4.252307999999999993e+03, 4.197948999999999614e+03, 4.218974000000000160e+03, 4.796922999999999774e+03, 0.000000000000000000e+00, 1.000000000000000000e+00, 1.000000000000000000e+02
3.500000000000000000e+01, 4.583590000000000146e+03, 4.244103000000000065e+03, 4.184103000000000065e+03, 4.196409999999999854e+03, 4.783077000000000226e+03, 0.000000000000000000e+00, 1.000000000000000000e+00, 1.000000000000000000e+02
3.600000000000000000e+01, 4.578462000000000444e+03, 4.250256000000000313e+03, 4.176409999999999854e+03, 4.196922999999999774e+03, 4.777948999999999614e+03, 0.000000000000000000e+00, 1.000000000000000000e+00, 1.000000000000000000e+02
3.700000000000000000e+01, 4.581025999999999840e+03, 4.260512999999999920e+03, 4.180000000000000000e+03, 4.210769000000000233e+03, 4.777948999999999614e+03, 0.000000000000000000e+00, 1.000000000000000000e+00, 1.000000000000000000e+02
3.800000000000000000e+01, 4.584103000000000065e+03, 4.254359000000000378e+03, 4.187179000000000087e+03, 4.208204999999999927e+03, 4.778462000000000444e+03, 0.000000000000000000e+00, 1.000000000000000000e+00, 1.000000000000000000e+02
3.900000000000000000e+01, 4.578462000000000444e+03, 4.244103000000000065e+03, 4.184614999999999782e+03, 4.206154000000000451e+03, 4.772307999999999993e+03, 0.000000000000000000e+00, 1.000000000000000000e+00, 1.000000000000000000e+02
4.000000000000000000e+01, 4.577435999999999694e+03, 4.244103000000000065e+03, 4.188717999999999847e+03, 4.211282000000000153e+03, 4.773845999999999549e+03, 0.000000000000000000e+00, 1.000000000000000000e+00, 1.000000000000000000e+02
4.100000000000000000e+01, 4.576922999999999774e+03, 4.248204999999999927e+03, 4.194359000000000378e+03, 4.208717999999999847e+03, 4.769743999999999687e+03, 0.000000000000000000e+00, 1.000000000000000000e+00, 1.000000000000000000e+02
4.200000000000000000e+01, 4.568717999999999847e+03, 4.248204999999999927e+03, 4.197435999999999694e+03, 4.217948999999999614e+03, 4.757435999999999694e+03, 0.000000000000000000e+00, 1.000000000000000000e+00, 1.000000000000000000e+02
4.300000000000000000e+01, 4.573332999999999629e+03, 4.256409999999999854e+03, 4.210256000000000313e+03, 4.232307999999999993e+03, 4.763590000000000146e+03, 0.000000000000000000e+00, 1.000000000000000000e+00, 1.000000000000000000e+02
4.400000000000000000e+01, 4.578974000000000160e+03, 4.262564000000000306e+03, 4.215385000000000218e+03, 4.226667000000000371e+03, 4.764103000000000065e+03, 0.000000000000000000e+00, 1.000000000000000000e+00, 1.000000000000000000e+02
4.500000000000000000e+01, 4.572820999999999913e+03, 4.258462000000000444e+03, 4.212307999999999993e+03, 4.216922999999999774e+03, 4.750256000000000313e+03, 0.000000000000000000e+00, 1.000000000000000000e+00, 1.000000000000000000e+02
4.600000000000000000e+01, 4.555896999999999935e+03, 4.252307999999999993e+03, 4.204103000000000065e+03, 4.210769000000000233e+03, 4.735385000000000218e+03, 0.000000000000000000e+00, 1.000000000000000000e+00, 1.000000000000000000e+02
4.700000000000000000e+01, 4.541537999999999556e+03, 4.248204999999999927e+03, 4.185640999999999622e+03, 4.204103000000000065e+03, 4.722051000000000386e+03, 0.000000000000000000e+00, 1.000000000000000000e+00, 1.000000000000000000e+02
4.800000000000000000e+01, 4.536922999999999774e+03, 4.242051000000000386e+03, 4.178462000000000444e+03, 4.209230999999999767e+03, 4.718974000000000160e+03, 0.000000000000000000e+00, 1.000000000000000000e+00, 1.000000000000000000e+02
4.900000000000000000e+01, 4.527692000000000007e+03, 4.237948999999999614e+03, 4.174359000000000378e+03, 4.213845999999999549e+03, 4.707692000000000007e+03, 0.000000000000000000e+00, 1.000000000000000000e+00, 1.000000000000000000e+02
5.000000000000000000e+01, 4.519487000000000080e+03, 4.237948999999999614e+03, 4.164103000000000065e+03, 4.205640999999999622e+03, 4.691282000000000153e+03, 0.000000000000000000e+00, 1.000000000000000000e+00, 1.000000000000000000e+02
5.100000000000000000e+01, 4.522051000000000386e+03, 4.235896999999999935e+03, 4.166667000000000371e+03, 4.204614999999999782e+03, 4.691282000000000153e+03, 0.000000000000000000e+00, 1.000000000000000000e+00, 1.000000000000000000e+02
5.200000000000000000e+01, 4.528717999999999847e+03, 4.240000000000000000e+03, 4.181025999999999840e+03, 4.221025999999999840e+03, 4.698462000000000444e+03, 0.000000000000000000e+00, 0.000000000000000000e+00, 1.000000000000000000e+02
5.300000000000000000e+01, 4.526154000000000451e+03, 4.248204999999999927e+03, 4.193845999999999549e+03, 4.231795000000000073e+03, 4.701537999999999556e+03, 0.000000000000000000e+00, 0.000000000000000000e+00, 1.000000000000000000e+02
5.400000000000000000e+01, 4.511282000000000153e+03, 4.250256000000000313e+03, 4.193845999999999549e+03, 4.213332999999999629e+03, 4.691282000000000153e+03, 0.000000000000000000e+00, 0.000000000000000000e+00, 1.000000000000000000e+02
5.500000000000000000e+01, 4.501537999999999556e+03, 4.242051000000000386e+03, 4.188204999999999927e+03, 4.197435999999999694e+03, 4.675896999999999935e+03, 0.000000000000000000e+00, 0.000000000000000000e+00, 1.000000000000000000e+02
5.600000000000000000e+01, 4.502564000000000306e+03, 4.237948999999999614e+03, 4.182051000000000386e+03, 4.207179000000000087e+03, 4.665127999999999702e+03, 0.000000000000000000e+00, 0.000000000000000000e+00, 1.000000000000000000e+02
5.700000000000000000e+01, 4.504103000000000065e+03, 4.242051000000000386e+03, 4.174359000000000378e+03, 4.208204999999999927e+03, 4.656409999999999854e+03, 0.000000000000000000e+00, 0.000000000000000000e+00, 1.000000000000000000e+02
5.800000000000000000e+01, 4.506154000000000451e+03, 4.233845999999999549e+03, 4.172820999999999913e+03, 4.196409999999999854e+03, 4.656409999999999854e+03, 0.000000000000000000e+00, 0.000000000000000000e+00, 1.000000000000000000e+02
5.900000000000000000e+01, 4.503077000000000226e+03, 4.221537999999999556e+03, 4.169743999999999687e+03, 4.196922999999999774e+03, 4.650769000000000233e+03, 0.000000000000000000e+00, 0.000000000000000000e+00, 1.000000000000000000e+02
6.000000000000000000e+01, 4.493332999999999629e+03, 4.223590000000000146e+03, 4.162051000000000386e+03, 4.199487000000000080e+03, 4.635385000000000218e+03, 0.000000000000000000e+00, 0.000000000000000000e+00, 1.000000000000000000e+02
6.100000000000000000e+01, 4.484614999999999782e+03, 4.225640999999999622e+03, 4.162051000000000386e+03, 4.194359000000000378e+03, 4.626154000000000451e+03, 0.000000000000000000e+00, 0.000000000000000000e+00, 1.000000000000000000e+02
6.200000000000000000e+01, 4.474359000000000378e+03, 4.217435999999999694e+03, 4.162051000000000386e+03, 4.195896999999999935e+03, 4.622564000000000306e+03, 0.000000000000000000e+00, 0.000000000000000000e+00, 1.000000000000000000e+02
6.300000000000000000e+01, 4.477435999999999694e+03, 4.221537999999999556e+03, 4.161025999999999840e+03, 4.195896999999999935e+03, 4.624614999999999782e+03, 0.000000000000000000e+00, 0.000000000000000000e+00, 1.000000000000000000e+02
6.400000000000000000e+01, 4.481025999999999840e+03, 4.223590000000000146e+03, 4.160000000000000000e+03, 4.189743999999999687e+03, 4.615385000000000218e+03, 0.000000000000000000e+00, 0.000000000000000000e+00, 1.000000000000000000e+02
6.500000000000000000e+01, 4.461537999999999556e+03, 4.209230999999999767e+03, 4.157435999999999694e+03, 4.195385000000000218e+03, 4.598462000000000444e+03, 0.000000000000000000e+00, 0.000000000000000000e+00, 1.000000000000000000e+02
6.600000000000000000e+01, 4.458462000000000444e+03, 4.215385000000000218e+03, 4.168717999999999847e+03, 4.203077000000000226e+03, 4.602564000000000306e+03, 0.000000000000000000e+00, 0.000000000000000000e+00, 1.000000000000000000e+02
6.700000000000000000e+01, 4.474872000000000298e+03, 4.244103000000000065e+03, 4.191282000000000153e+03, 4.194359000000000378e+03, 4.607692000000000007e+03, 0.000000000000000000e+00, 0.000000000000000000e+00, 1.000000000000000000e+02
6.800000000000000000e+01, 4.462564000000000306e+03, 4.242051000000000386e+03, 4.194359000000000378e+03, 4.190769000000000233e+03, 4.588204999999999927e+03, 0.000000000000000000e+00, 0.000000000000000000e+00, 1.000000000000000000e+02
6.900000000000000000e+01, 4.427692000000000007e+03, 4.227692000000000007e+03, 4.168204999999999927e+03, 4.191795000000000073e+03, 4.552307999999999993e+03, 0.000000000000000000e+00, 0.000000000000000000e+00, 1.000000000000000000e+02
7.000000000000000000e+01, 4.412307999999999993e+03, 4.231795000000000073e+03, 4.154359000000000378e+03, 4.181537999999999556e+03, 4.531795000000000073e+03, 0.000000000000000000e+00, 0.000000000000000000e+00, 1.000000000000000000e+02
7.100000000000000000e+01, 4.422051000000000386e+03, 4.248204999999999927e+03, 4.175896999999999935e+03, 4.183590000000000146e+03, 4.544103000000000065e+03, 0.000000000000000000e+00, 0.000000000000000000e+00, 1.000000000000000000e+02
7.200000000000000000e+01, 4.421537999999999556e+03, 4.260512999999999920e+03, 4.183077000000000226e+03, 4.201025999999999840e+03, 4.546154000000000451e+03, 0.000000000000000000e+00, 0.000000000000000000e+00, 1.000000000000000000e+02
7.300000000000000000e+01, 4.402564000000000306e+03, 4.258462000000000444e+03, 4.167179000000000087e+03, 4.195896999999999935e+03, 4.528204999999999927e+03, 0.000000000000000000e+00, 0.000000000000000000e+00, 1.000000000000000000e+02
7.400000000000000000e+01, 4.384103000000000065e+03, 4.248204999999999927e+03, 4.160000000000000000e+03, 4.174872000000000298e+03, 4.513845999999999549e+03, 0.000000000000000000e+00, 0.000000000000000000e+00, 1.000000000000000000e+02
7.500000000000000000e+01, 4.378462000000000444e+03, 4.254359000000000378e+03, 4.164103000000000065e+03, 4.185127999999999702e+03, 4.508204999999999927e+03, 0.000000000000000000e+00, 0.000000000000000000e+00, 1.000000000000000000e+02
7.600000000000000000e+01, 4.378462000000000444e+03, 4.266667000000000371e+03, 4.171795000000000073e+03, 4.212820999999999913e+03, 4.509743999999999687e+03, 0.000000000000000000e+00, 0.000000000000000000e+00, 1.000000000000000000e+02
7.700000000000000000e+01, 4.362051000000000386e+03, 4.262564000000000306e+03, 4.172820999999999913e+03, 4.209743999999999687e+03, 4.500512999999999920e+03, 0.000000000000000000e+00, 0.000000000000000000e+00, 1.000000000000000000e+02
7.800000000000000000e+01, 4.347179000000000087e+03, 4.256409999999999854e+03, 4.169230999999999767e+03, 4.193332999999999629e+03, 4.490256000000000313e+03, 0.000000000000000000e+00, 0.000000000000000000e+00, 1.000000000000000000e+02
7.900000000000000000e+01, 4.347692000000000007e+03, 4.260512999999999920e+03, 4.170769000000000233e+03, 4.194359000000000378e+03, 4.484614999999999782e+03, 0.000000000000000000e+00, 0.000000000000000000e+00, 1.000000000000000000e+02
8.000000000000000000e+01, 4.344614999999999782e+03, 4.264614999999999782e+03, 4.175385000000000218e+03, 4.197948999999999614e+03, 4.472820999999999913e+03, 0.000000000000000000e+00, 0.000000000000000000e+00, 1.000000000000000000e+02
8.100000000000000000e+01, 4.330256000000000313e+03, 4.264614999999999782e+03, 4.179487000000000080e+03, 4.196409999999999854e+03, 4.463077000000000226e+03, 0.000000000000000000e+00, 0.000000000000000000e+00, 1.000000000000000000e+02
8.200000000000000000e+01, 4.310769000000000233e+03, 4.256409999999999854e+03, 4.172307999999999993e+03, 4.195896999999999935e+03, 4.444614999999999782e+03, 0.000000000000000000e+00, 0.000000000000000000e+00, 1.000000000000000000e+02
8.300000000000000000e+01, 4.305640999999999622e+03, 4.258462000000000444e+03, 4.173332999999999629e+03, 4.198974000000000160e+03, 4.430256000000000313e+03, 0.000000000000000000e+00, 0.000000000000000000e+00, 1.000000000000000000e+02
8.400000000000000000e+01, 4.304614999999999782e+03, 4.272820999999999913e+03, 4.183077000000000226e+03, 4.205640999999999622e+03, 4.420512999999999920e+03, 0.000000000000000000e+00, 0.000000000000000000e+00, 1.000000000000000000e+02
8.500000000000000000e+01, 4.285127999999999702e+03, 4.268717999999999847e+03, 4.176922999999999774e+03, 4.203077000000000226e+03, 4.394872000000000298e+03, 0.000000000000000000e+00, 0.000000000000000000e+00, 1.000000000000000000e+02
8.600000000000000000e+01, 4.269743999999999687e+03, 4.256409999999999854e+03, 4.175385000000000218e+03, 4.193332999999999629e+03, 4.374359000000000378e+03, 0.000000000000000000e+00, 0.000000000000000000e+00, 1.000000000000000000e+02
8.700000000000000000e+01, 4.268204999999999927e+03, 4.260512999999999920e+03, 4.181025999999999840e+03, 4.187692000000000007e+03, 4.365127999999999702e+03, 0.000000000000000000e+00, 0.000000000000000000e+00, 1.000000000000000000e+02
8.800000000000000000e+01, 4.266154000000000451e+03, 4.268717999999999847e+03, 4.180512999999999920e+03, 4.194359000000000378e+03, 4.352820999999999913e+03, 0.000000000000000000e+00, 0.000000000000000000e+00, 1.000000000000000000e+02
8.900000000000000000e+01, 4.260512999999999920e+03, 4.272820999999999913e+03, 4.182051000000000386e+03, 4.210256000000000313e+03, 4.340512999999999920e+03, 0.000000000000000000e+00, 0.000000000000000000e+00, 1.000000000000000000e+02
9.000000000000000000e+01, 4.251282000000000153e+03, 4.272820999999999913e+03, 4.181537999999999556e+03, 4.211282000000000153e+03, 4.326154000000000451e+03, 0.000000000000000000e+00, 0.000000000000000000e+00, 1.000000000000000000e+02
9.100000000000000000e+01, 4.238462000000000444e+03, 4.264614999999999782e+03, 4.178462000000000444e+03, 4.198974000000000160e+03, 4.306667000000000371e+03, 0.000000000000000000e+00, 0.000000000000000000e+00, 1.000000000000000000e+02
9.200000000000000000e+01, 4.225127999999999702e+03, 4.262564000000000306e+03, 4.174359000000000378e+03, 4.194872000000000298e+03, 4.282564000000000306e+03, 0.000000000000000000e+00, 0.000000000000000000e+00, 1.000000000000000000e+02
9.300000000000000000e+01, 4.213332999999999629e+03, 4.272820999999999913e+03, 4.175385000000000218e+03, 4.198462000000000444e+03, 4.261025999999999840e+03, 0.000000000000000000e+00, 0.000000000000000000e+00, 1.000000000000000000e+02
9.400000000000000000e+01, 4.202051000000000386e+03, 4.276922999999999774e+03, 4.187692000000000007e+03, 4.193845999999999549e+03, 4.243590000000000146e+03, 0.000000000000000000e+00, 0.000000000000000000e+00, 1.000000000000000000e+02
9.500000000000000000e+01, 4.189230999999999767e+03, 4.276922999999999774e+03, 4.197435999999999694e+03, 4.193332999999999629e+03, 4.222564000000000306e+03, 0.000000000000000000e+00, 0.000000000000000000e+00, 1.000000000000000000e+02
9.600000000000000000e+01, 4.178974000000000160e+03, 4.278974000000000160e+03, 4.205127999999999702e+03, 4.211282000000000153e+03, 4.207692000000000007e+03, 0.000000000000000000e+00, 0.000000000000000000e+00, 1.000000000000000000e+02
9.700000000000000000e+01, 4.162051000000000386e+03, 4.268717999999999847e+03, 4.207692000000000007e+03, 4.215896999999999935e+03, 4.186667000000000371e+03, 0.000000000000000000e+00, 0.000000000000000000e+00, 1.000000000000000000e+02
9.800000000000000000e+01, 4.140512999999999920e+03, 4.258462000000000444e+03, 4.196409999999999854e+03, 4.206154000000000451e+03, 4.149743999999999687e+03, 0.000000000000000000e+00, 0.000000000000000000e+00, 1.000000000000000000e+02
9.900000000000000000e+01, 4.131282000000000153e+03, 4.262564000000000306e+03, 4.178974000000000160e+03, 4.207692000000000007e+03, 4.118462000000000444e+03, 0.000000000000000000e+00, 0.000000000000000000e+00, 1.000000000000000000e+02
1.000000000000000000e+02, 4.117948999999999614e+03, 4.266667000000000371e+03, 4.169743999999999687e+03, 4.198462000000000444e+03, 4.089744000000000142e+03, 0.000000000000000000e+00, 0.000000000000000000e+00, 1.000000000000000000e+02
1.010000000000000000e+02, 4.095385000000000218e+03, 4.262564000000000306e+03, 4.180512999999999920e+03, 4.185640999999999622e+03, 4.067179000000000087e+03, 0.000000000000000000e+00, 0.000000000000000000e+00, 1.000000000000000000e+02
1.020000000000000000e+02, 4.069744000000000142e+03, 4.250256000000000313e+03, 4.187179000000000087e+03, 4.195385000000000218e+03, 4.034358999999999924e+03, 0.000000000000000000e+00, 0.000000000000000000e+00, 1.000000000000000000e+02
1.030000000000000000e+02, 4.046666999999999916e+03, 4.246154000000000451e+03, 4.182051000000000386e+03, 4.202051000000000386e+03, 3.997949000000000069e+03, 0.000000000000000000e+00, 0.000000000000000000e+00, 1.000000000000000000e+02
1.040000000000000000e+02, 4.030255999999999858e+03, 4.248204999999999927e+03, 4.181537999999999556e+03, 4.192820999999999913e+03, 3.985128000000000156e+03, 0.000000000000000000e+00, 0.000000000000000000e+00, 1.000000000000000000e+02
1.050000000000000000e+02, 4.009744000000000142e+03, 4.242051000000000386e+03, 4.181537999999999556e+03, 4.190256000000000313e+03, 3.954871999999999844e+03, 0.000000000000000000e+00, 0.000000000000000000e+00, 1.000000000000000000e+02
1.060000000000000000e+02, 4.000000000000000000e+03, 4.246154000000000451e+03, 4.181537999999999556e+03, 4.193845999999999549e+03, 3.917949000000000069e+03, 0.000000000000000000e+00, 0.000000000000000000e+00, 1.000000000000000000e+02
1.070000000000000000e+02, 4.006153999999999996e+03, 4.266667000000000371e+03, 4.176922999999999774e+03, 4.197435999999999694e+03, 3.915385000000000218e+03, 0.000000000000000000e+00, 0.000000000000000000e+00, 1.000000000000000000e+02
1.080000000000000000e+02, 4.000512999999999920e+03, 4.264614999999999782e+03, 4.171282000000000153e+03, 4.208717999999999847e+03, 3.920000000000000000e+03, 0.000000000000000000e+00, 0.000000000000000000e+00, 1.000000000000000000e+02
1.090000000000000000e+02, 3.981025999999999840e+03, 4.248204999999999927e+03, 4.175896999999999935e+03, 4.214872000000000298e+03, 3.901538000000000011e+03, 0.000000000000000000e+00, 0.000000000000000000e+00, 1.000000000000000000e+02
1.100000000000000000e+02, 3.949744000000000142e+03, 4.246154000000000451e+03, 4.169743999999999687e+03, 4.207692000000000007e+03, 3.861538000000000011e+03, 0.000000000000000000e+00, 0.000000000000000000e+00, 1.000000000000000000e+02
1.110000000000000000e+02, 3.911795000000000073e+03, 4.248204999999999927e+03, 4.155896999999999935e+03, 4.208204999999999927e+03, 3.821025999999999840e+03, 0.000000000000000000e+00, 0.000000000000000000e+00, 1.000000000000000000e+02
1.120000000000000000e+02, 3.878974000000000160e+03, 4.242051000000000386e+03, 4.161537999999999556e+03, 4.207179000000000087e+03, 3.788204999999999927e+03, 0.000000000000000000e+00, 0.000000000000000000e+00, 1.000000000000000000e+02
1.130000000000000000e+02, 3.854871999999999844e+03, 4.235896999999999935e+03, 4.168717999999999847e+03, 4.194872000000000298e+03, 3.763077000000000226e+03, 0.000000000000000000e+00, 0.000000000000000000e+00, 1.000000000000000000e+02
1.140000000000000000e+02, 3.844614999999999782e+03, 4.237948999999999614e+03, 4.171282000000000153e+03, 4.195385000000000218e+03, 3.751282000000000153e+03, 0.000000000000000000e+00, 0.000000000000000000e+00, 1.000000000000000000e+02
1.150000000000000000e+02, 3.826153999999999996e+03, 4.248204999999999927e+03, 4.168717999999999847e+03, 4.207179000000000087e+03, 3.725641000000000076e+03, 0.000000000000000000e+00, 0.000000000000000000e+00, 1.000000000000000000e+02
1.160000000000000000e+02, 3.788204999999999927e+03, 4.248204999999999927e+03, 4.163590000000000146e+03, 4.208204999999999927e+03, 3.679487000000000080e+03, 0.000000000000000000e+00, 0.000000000000000000e+00, 1.000000000000000000e+02
1.170000000000000000e+02, 3.757436000000000149e+03, 4.237948999999999614e+03, 4.167692000000000007e+03, 4.207179000000000087e+03, 3.641538000000000011e+03, 0.000000000000000000e+00, 0.000000000000000000e+00, 1.000000000000000000e+02
1.180000000000000000e+02, 3.737949000000000069e+03, 4.235896999999999935e+03, 4.181025999999999840e+03, 4.208204999999999927e+03, 3.621025999999999840e+03, 0.000000000000000000e+00, 0.000000000000000000e+00, 1.000000000000000000e+02
1.190000000000000000e+02, 3.715385000000000218e+03, 4.244103000000000065e+03, 4.205127999999999702e+03, 4.207692000000000007e+03, 3.607179000000000087e+03, 0.000000000000000000e+00, 0.000000000000000000e+00, 1.000000000000000000e+02
1.200000000000000000e+02, 3.691795000000000073e+03, 4.242051000000000386e+03, 4.214359000000000378e+03, 4.210256000000000313e+03, 3.571795000000000073e+03, 0.000000000000000000e+00, 0.000000000000000000e+00, 1.000000000000000000e+02
1.210000000000000000e+02, 3.677949000000000069e+03, 4.242051000000000386e+03, 4.201025999999999840e+03, 4.213332999999999629e+03, 3.534358999999999924e+03, 0.000000000000000000e+00, 0.000000000000000000e+00, 1.000000000000000000e+02
1.220000000000000000e+02, 3.656922999999999774e+03, 4.248204999999999927e+03, 4.193332999999999629e+03, 4.212307999999999993e+03, 3.515896999999999935e+03, 0.000000000000000000e+00, 0.000000000000000000e+00, 1.000000000000000000e+02
1.230000000000000000e+02, 3.623077000000000226e+03, 4.250256000000000313e+03, 4.186667000000000371e+03, 4.208717999999999847e+03, 3.483590000000000146e+03, 0.000000000000000000e+00, 0.000000000000000000e+00, 1.000000000000000000e+02
1.240000000000000000e+02, 3.594871999999999844e+03, 4.235896999999999935e+03, 4.179487000000000080e+03, 4.202564000000000306e+03, 3.441538000000000011e+03, 0.000000000000000000e+00, 0.000000000000000000e+00, 1.000000000000000000e+02
1.250000000000000000e+02, 3.550255999999999858e+03, 4.229743999999999687e+03, 4.175896999999999935e+03, 4.188204999999999927e+03, 3.388717999999999847e+03, 0.000000000000000000e+00, 0.000000000000000000e+00, 1.000000000000000000e+02
1.260000000000000000e+02, 3.507179000000000087e+03, 4.231795000000000073e+03, 4.169230999999999767e+03, 4.178462000000000444e+03, 3.329231000000000222e+03, 0.000000000000000000e+00, 0.000000000000000000e+00, 1.000000000000000000e+02
1.270000000000000000e+02, 3.508717999999999847e+03, 4.231795000000000073e+03, 4.171282000000000153e+03, 4.184103000000000065e+03, 3.300000000000000000e+03, 0.000000000000000000e+00, 0.000000000000000000e+00, 1.000000000000000000e+02
0.000000000000000000e+00, 3.518974000000000160e+03, 4.242051000000000386e+03, 4.175385000000000218e+03, 4.182564000000000306e+03, 3.288204999999999927e+03, 0.000000000000000000e+00, 0.000000000000000000e+00, 1.000000000000000000e+02
1.000000000000000000e+00, 3.503077000000000226e+03, 4.246154000000000451e+03, 4.171795000000000073e+03, 4.169230999999999767e+03, 3.256922999999999774e+03, 0.000000000000000000e+00, 0.000000000000000000e+00, 1.000000000000000000e+02
2.000000000000000000e+00, 3.480000000000000000e+03, 4.235896999999999935e+03, 4.159487000000000080e+03, 4.169230999999999767e+03, 3.208717999999999847e+03, 0.000000000000000000e+00, 0.000000000000000000e+00, 1.000000000000000000e+02
3.000000000000000000e+00, 3.456922999999999774e+03, 4.227692000000000007e+03, 4.157435999999999694e+03, 4.176409999999999854e+03, 3.169744000000000142e+03, 0.000000000000000000e+00, 0.000000000000000000e+00, 1.000000000000000000e+02
4.000000000000000000e+00, 3.424103000000000065e+03, 4.233845999999999549e+03, 4.163590000000000146e+03, 4.174359000000000378e+03, 3.128717999999999847e+03, 0.000000000000000000e+00, 0.000000000000000000e+00, 1.000000000000000000e+02
5.000000000000000000e+00, 3.372307999999999993e+03, 4.237948999999999614e+03, 4.153332999999999629e+03, 4.169230999999999767e+03, 3.054871999999999844e+03, 0.000000000000000000e+00, 0.000000000000000000e+00, 1.000000000000000000e+02
6.000000000000000000e+00, 3.312820999999999913e+03, 4.221537999999999556e+03, 4.137948999999999614e+03, 4.173332999999999629e+03, 2.975385000000000218e+03, 0.000000000000000000e+00, 0.000000000000000000e+00, 1.000000000000000000e+02
7.000000000000000000e+00, 3.273846000000000004e+03, 4.213332999999999629e+03, 4.136922999999999774e+03, 4.181537999999999556e+03, 2.917949000000000069e+03, 0.000000000000000000e+00, 0.000000000000000000e+00, 1.000000000000000000e+02
8.000000000000000000e+00, 3.250768999999999778e+03, 4.225640999999999622e+03, 4.151795000000000073e+03, 4.183590000000000146e+03, 2.867692000000000007e+03, 0.000000000000000000e+00, 0.000000000000000000e+00, 1.000000000000000000e+02
9.000000000000000000e+00, 3.223077000000000226e+03, 4.229743999999999687e+03, 4.164103000000000065e+03, 4.180512999999999920e+03, 2.805641000000000076e+03, 0.000000000000000000e+00, 0.000000000000000000e+00, 1.000000000000000000e+02
1.000000000000000000e+01, 3.186666999999999916e+03, 4.217435999999999694e+03, 4.164103000000000065e+03, 4.178974000000000160e+03, 2.725641000000000076e+03, 0.000000000000000000e+00, 0.000000000000000000e+00, 1.000000000000000000e+02
1.100000000000000000e+01, 3.154871999999999844e+03, 4.225640999999999622e+03, 4.177435999999999694e+03, 4.192820999999999913e+03, 2.655896999999999935e+03, 0.000000000000000000e+00, 0.000000000000000000e+00, 1.000000000000000000e+02
1.200000000000000000e+01, 3.129744000000000142e+03, 4.237948999999999614e+03, 4.196409999999999854e+03, 4.209743999999999687e+03, 2.599487000000000080e+03, 0.000000000000000000e+00, 0.000000000000000000e+00, 1.000000000000000000e+02
1.300000000000000000e+01, 3.094358999999999924e+03, 4.231795000000000073e+03, 4.197435999999999694e+03, 4.210256000000000313e+03, 2.532307999999999993e+03, 0.000000000000000000e+00, 0.000000000000000000e+00, 1.000000000000000000e+02
1.400000000000000000e+01, 3.055385000000000218e+03, 4.223590000000000146e+03, 4.190256000000000313e+03, 4.202051000000000386e+03, 2.465641000000000076e+03, 0.000000000000000000e+00, 0.000000000000000000e+00, 1.000000000000000000e+02
1.500000000000000000e+01, 3.017949000000000069e+03, 4.225640999999999622e+03, 4.187692000000000007e+03, 4.193332999999999629e+03, 2.407692000000000007e+03, 0.000000000000000000e+00, 0.000000000000000000e+00, 1.000000000000000000e+02
1.600000000000000000e+01, 2.983590000000000146e+03, 4.231795000000000073e+03, 4.184103000000000065e+03, 4.193332999999999629e+03, 2.356922999999999774e+03, 0.000000000000000000e+00, 0.000000000000000000e+00, 1.000000000000000000e+02
1.700000000000000000e+01, 2.948204999999999927e+03, 4.231795000000000073e+03, 4.169230999999999767e+03, 4.188204999999999927e+03, 2.304103000000000065e+03, 0.000000000000000000e+00, 0.000000000000000000e+00, 1.000000000000000000e+02
1.800000000000000000e+01, 2.906153999999999996e+03, 4.229743999999999687e+03, 4.147179000000000087e+03, 4.177948999999999614e+03, 2.237949000000000069e+03, 0.000000000000000000e+00, 0.000000000000000000e+00, 1.000000000000000000e+02
1.900000000000000000e+01, 2.862050999999999931e+03, 4.229743999999999687e+03, 4.135385000000000218e+03, 4.175385000000000218e+03, 2.169231000000000222e+03, 0.000000000000000000e+00, 0.000000000000000000e+00, 1.000000000000000000e+02
2.000000000000000000e+01, 2.807692000000000007e+03, 4.223590000000000146e+03, 4.121537999999999556e+03, 4.164614999999999782e+03, 2.095896999999999935e+03, 0.000000000000000000e+00, 0.000000000000000000e+00, 1.000000000000000000e+02
2.100000000000000000e+01, 2.747179000000000087e+03, 4.213332999999999629e+03, 4.112820999999999913e+03, 4.165640999999999622e+03, 2.035384999999999991e+03, 0.000000000000000000e+00, 0.000000000000000000e+00, 1.000000000000000000e+02
2.200000000000000000e+01, 2.700512999999999920e+03, 4.215385000000000218e+03, 4.137948999999999614e+03, 4.189230999999999767e+03, 1.993333000000000084e+03, 0.000000000000000000e+00, 0.000000000000000000e+00, 1.000000000000000000e+02
2.300000000000000000e+01, 2.652820999999999913e+03, 4.227692000000000007e+03, 4.156922999999999774e+03, 4.189230999999999767e+03, 1.936923000000000002e+03, 0.000000000000000000e+00, 0.000000000000000000e+00, 1.000000000000000000e+02
2.400000000000000000e+01, 2.595896999999999935e+03, 4.227692000000000007e+03, 4.151795000000000073e+03, 4.173845999999999549e+03, 1.873846000000000004e+03, 0.000000000000000000e+00, 0.000000000000000000e+00, 1.000000000000000000e+02
2.500000000000000000e+01, 2.538461999999999989e+03, 4.217435999999999694e+03, 4.155385000000000218e+03, 4.185640999999999622e+03, 1.827692000000000007e+03, 0.000000000000000000e+00, 0.000000000000000000e+00, 1.000000000000000000e+02
2.600000000000000000e+01, 2.486153999999999996e+03, 4.213332999999999629e+03, 4.167692000000000007e+03, 4.192820999999999913e+03, 1.800000000000000000e+03, 0.000000000000000000e+00, 0.000000000000000000e+00, 1.000000000000000000e+02
2.700000000000000000e+01, 2.443590000000000146e+03, 4.215385000000000218e+03, 4.169743999999999687e+03, 4.178462000000000444e+03, 1.772820999999999913e+03, 0.000000000000000000e+00, 0.000000000000000000e+00, 1.000000000000000000e+02
2.800000000000000000e+01, 2.401025999999999840e+03, 4.213332999999999629e+03, 4.157948999999999614e+03, 4.173845999999999549e+03, 1.731281999999999925e+03, 0.000000000000000000e+00, 0.000000000000000000e+00, 1.000000000000000000e+02
2.900000000000000000e+01, 2.357436000000000149e+03, 4.211282000000000153e+03, 4.160000000000000000e+03, 4.184103000000000065e+03, 1.698461999999999989e+03, 0.000000000000000000e+00, 0.000000000000000000e+00, 1.000000000000000000e+02
3.000000000000000000e+01, 2.298461999999999989e+03, 4.215385000000000218e+03, 4.166154000000000451e+03, 4.184614999999999782e+03, 1.663076999999999998e+03, 0.000000000000000000e+00, 0.000000000000000000e+00, 1.000000000000000000e+02
3.100000000000000000e+01, 2.223590000000000146e+03, 4.217435999999999694e+03, 4.157435999999999694e+03, 4.170256000000000313e+03, 1.615896999999999935e+03, 0.000000000000000000e+00, 0.000000000000000000e+00, 1.000000000000000000e+02
3.200000000000000000e+01, 2.152820999999999913e+03, 4.213332999999999629e+03, 4.153332999999999629e+03, 4.165640999999999622e+03, 1.584615000000000009e+03, 0.000000000000000000e+00, 0.000000000000000000e+00, 1.000000000000000000e+02
3.300000000000000000e+01, 2.080000000000000000e+03, 4.209230999999999767e+03, 4.149743999999999687e+03, 4.173332999999999629e+03, 1.562564000000000078e+03, 0.000000000000000000e+00, 0.000000000000000000e+00, 1.000000000000000000e+02
3.400000000000000000e+01, 2.015896999999999935e+03, 4.211282000000000153e+03, 4.140512999999999920e+03, 4.172820999999999913e+03, 1.534358999999999924e+03, 0.000000000000000000e+00, 0.000000000000000000e+00, 1.000000000000000000e+02
3.500000000000000000e+01, 1.971795000000000073e+03, 4.217435999999999694e+03, 4.135385000000000218e+03, 4.172307999999999993e+03, 1.500000000000000000e+03, 0.000000000000000000e+00, 0.000000000000000000e+00, 1.000000000000000000e+02
3.600000000000000000e+01, 1.934358999999999924e+03, 4.213332999999999629e+03, 4.136922999999999774e+03, 4.182564000000000306e+03, 1.468204999999999927e+03, 0.000000000000000000e+00, 0.000000000000000000e+00, 1.000000000000000000e+02
3.700000000000000000e+01, 1.897435999999999922e+03, 4.203077000000000226e+03, 4.139487000000000080e+03, 4.181025999999999840e+03, 1.448718000000000075e+03, 0.000000000000000000e+00, 0.000000000000000000e+00, 1.000000000000000000e+02
3.800000000000000000e+01, 1.861538000000000011e+03, 4.203077000000000226e+03, 4.141025999999999840e+03, 4.174359000000000378e+03, 1.422564000000000078e+03, 0.000000000000000000e+00, 0.000000000000000000e+00, 1.000000000000000000e+02
3.900000000000000000e+01, 1.832820999999999913e+03, 4.205127999999999702e+03, 4.150256000000000313e+03, 4.187692000000000007e+03, 1.393333000000000084e+03, 0.000000000000000000e+00, 0.000000000000000000e+00, 1.000000000000000000e+02
4.000000000000000000e+01, 1.810769000000000005e+03, 4.198974000000000160e+03, 4.155896999999999935e+03, 4.192820999999999913e+03, 1.367692000000000007e+03, 0.000000000000000000e+00, 0.000000000000000000e+00, 1.000000000000000000e+02
4.100000000000000000e+01, 1.782050999999999931e+03, 4.198974000000000160e+03, 4.147179000000000087e+03, 4.180000000000000000e+03, 1.342564000000000078e+03, 0.000000000000000000e+00, 0.000000000000000000e+00, 1.000000000000000000e+02
4.200000000000000000e+01, 1.755896999999999935e+03, 4.198974000000000160e+03, 4.140512999999999920e+03, 4.176922999999999774e+03, 1.327692000000000007e+03, 0.000000000000000000e+00, 0.000000000000000000e+00, 1.000000000000000000e+02
4.300000000000000000e+01, 1.744103000000000065e+03, 4.188717999999999847e+03, 4.132820999999999913e+03, 4.177435999999999694e+03, 1.315384999999999991e+03, 0.000000000000000000e+00, 0.000000000000000000e+00, 1.000000000000000000e+02
4.400000000000000000e+01, 1.738461999999999989e+03, 4.176409999999999854e+03, 4.120512999999999920e+03, 4.172820999999999913e+03, 1.314872000000000071e+03, 0.000000000000000000e+00, 0.000000000000000000e+00, 1.000000000000000000e+02
4.500000000000000000e+01, 1.730256000000000085e+03, 4.166154000000000451e+03, 4.113332999999999629e+03, 4.164103000000000065e+03, 1.319487000000000080e+03, 0.000000000000000000e+00, 0.000000000000000000e+00, 1.000000000000000000e+02
4.600000000000000000e+01, 1.714872000000000071e+03, 4.155896999999999935e+03, 4.105640999999999622e+03, 4.153332999999999629e+03, 1.308204999999999927e+03, 0.000000000000000000e+00, 0.000000000000000000e+00, 1.000000000000000000e+02
4.700000000000000000e+01, 1.703076999999999998e+03, 4.155896999999999935e+03, 4.101537999999999556e+03, 4.149743999999999687e+03, 1.294358999999999924e+03, 0.000000000000000000e+00, 0.000000000000000000e+00, 1.000000000000000000e+02
4.800000000000000000e+01, 1.689743999999999915e+03, 4.162051000000000386e+03, 4.104103000000000065e+03, 4.147692000000000007e+03, 1.281026000000000067e+03, 0.000000000000000000e+00, 0.000000000000000000e+00, 1.000000000000000000e+02
4.900000000000000000e+01, 1.683076999999999998e+03, 4.170256000000000313e+03, 4.119487000000000080e+03, 4.148204999999999927e+03, 1.272820999999999913e+03, 0.000000000000000000e+00, 0.000000000000000000e+00, 1.000000000000000000e+02
5.000000000000000000e+01, 1.686153999999999996e+03, 4.164103000000000065e+03, 4.137435999999999694e+03, 4.162051000000000386e+03, 1.269743999999999915e+03, 0.000000000000000000e+00, 0.000000000000000000e+00, 1.000000000000000000e+02
5.100000000000000000e+01, 1.680512999999999920e+03, 4.141537999999999556e+03, 4.135896999999999935e+03, 4.175385000000000218e+03, 1.269230999999999995e+03, 0.000000000000000000e+00, 0.000000000000000000e+00, 1.000000000000000000e+02
5.200000000000000000e+01, 1.670769000000000005e+03, 4.123077000000000226e+03, 4.135385000000000218e+03, 4.175896999999999935e+03, 1.277949000000000069e+03, 0.000000000000000000e+00, 0.000000000000000000e+00, 1.000000000000000000e+02
5.300000000000000000e+01, 1.658461999999999989e+03, 4.110769000000000233e+03, 4.143590000000000146e+03, 4.173332999999999629e+03, 1.285641000000000076e+03, 0.000000000000000000e+00, 0.000000000000000000e+00, 1.000000000000000000e+02
5.400000000000000000e+01, 1.653333000000000084e+03, 4.102564000000000306e+03, 4.152820999999999913e+03, 4.181025999999999840e+03, 1.304103000000000065e+03, 0.000000000000000000e+00, 0.000000000000000000e+00, 1.000000000000000000e+02
5.500000000000000000e+01, 1.658461999999999989e+03, 4.104614999999999782e+03, 4.158974000000000160e+03, 4.201537999999999556e+03, 1.328718000000000075e+03, 0.000000000000000000e+00, 0.000000000000000000e+00, 1.000000000000000000e+02
5.600000000000000000e+01, 1.655384999999999991e+03, 4.104614999999999782e+03, 4.146154000000000451e+03, 4.199487000000000080e+03, 1.317949000000000069e+03, 0.000000000000000000e+00, 0.000000000000000000e+00, 1.000000000000000000e+02
5.700000000000000000e+01, 1.644103000000000065e+03, 4.094358999999999924e+03, 4.122564000000000306e+03, 4.168204999999999927e+03, 1.294872000000000071e+03, 0.000000000000000000e+00, 0.000000000000000000e+00, 1.000000000000000000e+02
5.800000000000000000e+01, 1.639487000000000080e+03, 4.080000000000000000e+03, 4.102564000000000306e+03, 4.153845999999999549e+03, 1.300000000000000000e+03, 0.000000000000000000e+00, 0.000000000000000000e+00, 1.000000000000000000e+02
5.900000000000000000e+01, 1.645641000000000076e+03, 4.077949000000000069e+03, 4.090255999999999858e+03, 4.155896999999999935e+03, 1.318973999999999933e+03, 0.000000000000000000e+00, 0.000000000000000000e+00, 1.000000000000000000e+02
6.000000000000000000e+01, 1.649743999999999915e+03, 4.084103000000000065e+03, 4.082563999999999851e+03, 4.140512999999999920e+03, 1.324615000000000009e+03, 0.000000000000000000e+00, 0.000000000000000000e+00, 1.000000000000000000e+02
6.100000000000000000e+01, 1.646153999999999996e+03, 4.086153999999999996e+03, 4.077949000000000069e+03, 4.127692000000000007e+03, 1.313333000000000084e+03, 0.000000000000000000e+00, 0.000000000000000000e+00, 1.000000000000000000e+02
6.200000000000000000e+01, 1.651281999999999925e+03, 4.086153999999999996e+03, 4.084103000000000065e+03, 4.137435999999999694e+03, 1.310769000000000005e+03, 0.000000000000000000e+00, 0.000000000000000000e+00, 1.000000000000000000e+02
6.300000000000000000e+01, 1.663076999999999998e+03, 4.082050999999999931e+03, 4.084614999999999782e+03, 4.136409999999999854e+03, 1.313846000000000004e+03, 0.000000000000000000e+00, 0.000000000000000000e+00, 1.000000000000000000e+02
6.400000000000000000e+01, 1.676410000000000082e+03, 4.075896999999999935e+03, 4.087692000000000007e+03, 4.126667000000000371e+03, 1.318973999999999933e+03, 0.000000000000000000e+00, 0.000000000000000000e+00, 1.000000000000000000e+02
6.500000000000000000e+01, 1.700512999999999920e+03, 4.077949000000000069e+03, 4.113845999999999549e+03, 4.144614999999999782e+03, 1.340512999999999920e+03, 0.000000000000000000e+00, 0.000000000000000000e+00, 1.000000000000000000e+02
6.600000000000000000e+01, 1.712820999999999913e+03, 4.077949000000000069e+03, 4.126667000000000371e+03, 4.164103000000000065e+03, 1.353333000000000084e+03, 0.000000000000000000e+00, 0.000000000000000000e+00, 1.000000000000000000e+02
6.700000000000000000e+01, 1.712820999999999913e+03, 4.063590000000000146e+03, 4.118462000000000444e+03, 4.164614999999999782e+03, 1.355896999999999935e+03, 0.000000000000000000e+00, 0.000000000000000000e+00, 1.000000000000000000e+02
6.800000000000000000e+01, 1.723589999999999918e+03, 4.061538000000000011e+03, 4.114872000000000298e+03, 4.163077000000000226e+03, 1.369230999999999995e+03, 0.000000000000000000e+00, 0.000000000000000000e+00, 1.000000000000000000e+02
6.900000000000000000e+01, 1.732820999999999913e+03, 4.067692000000000007e+03, 4.106667000000000371e+03, 4.156409999999999854e+03, 1.373846000000000004e+03, 0.000000000000000000e+00, 0.000000000000000000e+00, 1.000000000000000000e+02
7.000000000000000000e+01, 1.731795000000000073e+03, 4.057436000000000149e+03, 4.090255999999999858e+03, 4.145127999999999702e+03, 1.358461999999999989e+03, 0.000000000000000000e+00, 0.000000000000000000e+00, 1.000000000000000000e+02
7.100000000000000000e+01, 1.730769000000000005e+03, 4.043077000000000226e+03, 4.066153999999999996e+03, 4.139487000000000080e+03, 1.349743999999999915e+03, 0.000000000000000000e+00, 0.000000000000000000e+00, 1.000000000000000000e+02
7.200000000000000000e+01, 1.737435999999999922e+03, 4.045128000000000156e+03, 4.051795000000000073e+03, 4.133845999999999549e+03, 1.362564000000000078e+03, 0.000000000000000000e+00, 0.000000000000000000e+00, 1.000000000000000000e+02
7.300000000000000000e+01, 1.738973999999999933e+03, 4.045128000000000156e+03, 4.060000000000000000e+03, 4.128204999999999927e+03, 1.377435999999999922e+03, 0.000000000000000000e+00, 0.000000000000000000e+00, 1.000000000000000000e+02
7.400000000000000000e+01, 1.743076999999999998e+03, 4.036922999999999774e+03, 4.067179000000000087e+03, 4.126667000000000371e+03, 1.377949000000000069e+03, 0.000000000000000000e+00, 0.000000000000000000e+00, 1.000000000000000000e+02
7.500000000000000000e+01, 1.770769000000000005e+03, 4.043077000000000226e+03, 4.068204999999999927e+03, 4.125640999999999622e+03, 1.380512999999999920e+03, 0.000000000000000000e+00, 0.000000000000000000e+00, 1.000000000000000000e+02
7.600000000000000000e+01, 1.797949000000000069e+03, 4.059487000000000080e+03, 4.072820999999999913e+03, 4.124614999999999782e+03, 1.387179000000000087e+03, 0.000000000000000000e+00, 0.000000000000000000e+00, 1.000000000000000000e+02
7.700000000000000000e+01, 1.810769000000000005e+03, 4.057436000000000149e+03, 4.080000000000000000e+03, 4.137948999999999614e+03, 1.400512999999999920e+03, 0.000000000000000000e+00, 0.000000000000000000e+00, 1.000000000000000000e+02
7.800000000000000000e+01, 1.825127999999999929e+03, 4.047179000000000087e+03, 4.083077000000000226e+03, 4.145640999999999622e+03, 1.424615000000000009e+03, 0.000000000000000000e+00, 0.000000000000000000e+00, 1.000000000000000000e+02
7.900000000000000000e+01, 1.839487000000000080e+03, 4.057436000000000149e+03, 4.088717999999999847e+03, 4.134872000000000298e+03, 1.446153999999999996e+03, 0.000000000000000000e+00, 0.000000000000000000e+00, 1.000000000000000000e+02
8.000000000000000000e+01, 1.855896999999999935e+03, 4.057436000000000149e+03, 4.104614999999999782e+03, 4.134872000000000298e+03, 1.465127999999999929e+03, 0.000000000000000000e+00, 0.000000000000000000e+00, 1.000000000000000000e+02
8.100000000000000000e+01, 1.867692000000000007e+03, 4.038974000000000160e+03, 4.105640999999999622e+03, 4.134872000000000298e+03, 1.473846000000000004e+03, 0.000000000000000000e+00, 0.000000000000000000e+00, 1.000000000000000000e+02
8.200000000000000000e+01, 1.873333000000000084e+03, 4.038974000000000160e+03, 4.092307999999999993e+03, 4.117435999999999694e+03, 1.478461999999999989e+03, 0.000000000000000000e+00, 0.000000000000000000e+00, 1.000000000000000000e+02
8.300000000000000000e+01, 1.888204999999999927e+03, 4.053333000000000084e+03, 4.084103000000000065e+03, 4.119487000000000080e+03, 1.505127999999999929e+03, 0.000000000000000000e+00, 0.000000000000000000e+00, 1.000000000000000000e+02
8.400000000000000000e+01, 1.904103000000000065e+03, 4.053333000000000084e+03, 4.067692000000000007e+03, 4.134359000000000378e+03, 1.525127999999999929e+03, 0.000000000000000000e+00, 0.000000000000000000e+00, 1.000000000000000000e+02
8.500000000000000000e+01, 1.909230999999999995e+03, 4.034871999999999844e+03, 4.049744000000000142e+03, 4.118462000000000444e+03, 1.523076999999999998e+03, 0.000000000000000000e+00, 0.000000000000000000e+00, 1.000000000000000000e+02
8.600000000000000000e+01, 1.908718000000000075e+03, 4.030768999999999778e+03, 4.048717999999999847e+03, 4.097948999999999614e+03, 1.527179000000000087e+03, 0.000000000000000000e+00, 0.000000000000000000e+00, 1.000000000000000000e+02
8.700000000000000000e+01, 1.928204999999999927e+03, 4.043077000000000226e+03, 4.059487000000000080e+03, 4.103077000000000226e+03, 1.558461999999999989e+03, 0.000000000000000000e+00, 0.000000000000000000e+00, 1.000000000000000000e+02
8.800000000000000000e+01, 1.959487000000000080e+03, 4.047179000000000087e+03, 4.066666999999999916e+03, 4.106154000000000451e+03, 1.589230999999999995e+03, 0.000000000000000000e+00, 0.000000000000000000e+00, 1.000000000000000000e+02
8.900000000000000000e+01, 1.959487000000000080e+03, 4.045128000000000156e+03, 4.067692000000000007e+03, 4.104614999999999782e+03, 1.592820999999999913e+03, 0.000000000000000000e+00, 0.000000000000000000e+00, 1.000000000000000000e+02
9.000000000000000000e+01, 1.940512999999999920e+03, 4.051282000000000153e+03, 4.083590000000000146e+03, 4.119487000000000080e+03, 1.607692000000000007e+03, 0.000000000000000000e+00, 0.000000000000000000e+00, 1.000000000000000000e+02
9.100000000000000000e+01, 1.934872000000000071e+03, 4.059487000000000080e+03, 4.100512999999999920e+03, 4.133845999999999549e+03, 1.637435999999999922e+03, 0.000000000000000000e+00, 0.000000000000000000e+00, 1.000000000000000000e+02
9.200000000000000000e+01, 1.931795000000000073e+03, 4.053333000000000084e+03, 4.096409999999999854e+03, 4.132820999999999913e+03, 1.651795000000000073e+03, 0.000000000000000000e+00, 0.000000000000000000e+00, 1.000000000000000000e+02
9.300000000000000000e+01, 1.926153999999999996e+03, 4.049231000000000222e+03, 4.097435999999999694e+03, 4.136409999999999854e+03, 1.662050999999999931e+03, 0.000000000000000000e+00, 0.000000000000000000e+00, 1.000000000000000000e+02
9.400000000000000000e+01, 1.933333000000000084e+03, 4.057436000000000149e+03, 4.101537999999999556e+03, 4.141537999999999556e+03, 1.677435999999999922e+03, 0.000000000000000000e+00, 0.000000000000000000e+00, 1.000000000000000000e+02
9.500000000000000000e+01, 1.955896999999999935e+03, 4.059487000000000080e+03, 4.092307999999999993e+03, 4.138974000000000160e+03, 1.702564000000000078e+03, 0.000000000000000000e+00, 0.000000000000000000e+00, 1.000000000000000000e+02
9.600000000000000000e+01, 1.974872000000000071e+03, 4.045128000000000156e+03, 4.074358999999999924e+03, 4.127692000000000007e+03, 1.730256000000000085e+03, 0.000000000000000000e+00, 0.000000000000000000e+00, 1.000000000000000000e+02
9.700000000000000000e+01, 1.990256000000000085e+03, 4.036922999999999774e+03, 4.061538000000000011e+03, 4.120000000000000000e+03, 1.748204999999999927e+03, 0.000000000000000000e+00, 0.000000000000000000e+00, 1.000000000000000000e+02
9.800000000000000000e+01, 2.015896999999999935e+03, 4.045128000000000156e+03, 4.061025999999999840e+03, 4.120512999999999920e+03, 1.768718000000000075e+03, 0.000000000000000000e+00, 0.000000000000000000e+00, 1.000000000000000000e+02
9.900000000000000000e+01, 2.031281999999999925e+03, 4.053333000000000084e+03, 4.063077000000000226e+03, 4.115385000000000218e+03, 1.784103000000000065e+03, 0.000000000000000000e+00, 0.000000000000000000e+00, 1.000000000000000000e+02
1.000000000000000000e+02, 2.034872000000000071e+03, 4.053333000000000084e+03, 4.068204999999999927e+03, 4.109230999999999767e+03, 1.797435999999999922e+03, 0.000000000000000000e+00, 0.000000000000000000e+00, 1.000000000000000000e+02
1.010000000000000000e+02, 2.056409999999999854e+03, 4.057436000000000149e+03, 4.076409999999999854e+03, 4.116409999999999854e+03, 1.823076999999999998e+03, 0.000000000000000000e+00, 0.000000000000000000e+00, 1.000000000000000000e+02
1.020000000000000000e+02, 2.085641000000000076e+03, 4.067692000000000007e+03, 4.080512999999999920e+03, 4.130256000000000313e+03, 1.849230999999999995e+03, 0.000000000000000000e+00, 0.000000000000000000e+00, 1.000000000000000000e+02
1.030000000000000000e+02, 2.099487000000000080e+03, 4.075896999999999935e+03, 4.084103000000000065e+03, 4.136922999999999774e+03, 1.854872000000000071e+03, 0.000000000000000000e+00, 0.000000000000000000e+00, 1.000000000000000000e+02
1.040000000000000000e+02, 2.103077000000000226e+03, 4.067692000000000007e+03, 4.082563999999999851e+03, 4.126667000000000371e+03, 1.849230999999999995e+03, 0.000000000000000000e+00, 0.000000000000000000e+00, 1.000000000000000000e+02
1.050000000000000000e+02, 2.111795000000000073e+03, 4.051282000000000153e+03, 4.073333000000000084e+03, 4.121537999999999556e+03, 1.863076999999999998e+03, 0.000000000000000000e+00, 0.000000000000000000e+00, 1.000000000000000000e+02
1.060000000000000000e+02, 2.126153999999999996e+03, 4.047179000000000087e+03, 4.066153999999999996e+03, 4.125127999999999702e+03, 1.882050999999999931e+03, 0.000000000000000000e+00, 0.000000000000000000e+00, 1.000000000000000000e+02
1.070000000000000000e+02, 2.142563999999999851e+03, 4.051282000000000153e+03, 4.064103000000000065e+03, 4.118974000000000160e+03, 1.891281999999999925e+03, 0.000000000000000000e+00, 0.000000000000000000e+00, 1.000000000000000000e+02
1.080000000000000000e+02, 2.169744000000000142e+03, 4.049231000000000222e+03, 4.058974000000000160e+03, 4.113845999999999549e+03, 1.915384999999999991e+03, 0.000000000000000000e+00, 0.000000000000000000e+00, 1.000000000000000000e+02
1.090000000000000000e+02, 2.202050999999999931e+03, 4.049231000000000222e+03, 4.048717999999999847e+03, 4.117948999999999614e+03, 1.942050999999999931e+03, 0.000000000000000000e+00, 0.000000000000000000e+00, 1.000000000000000000e+02
1.100000000000000000e+02, 2.229231000000000222e+03, 4.053333000000000084e+03, 4.050255999999999858e+03, 4.122051000000000386e+03, 1.967179000000000087e+03, 0.000000000000000000e+00, 0.000000000000000000e+00, 1.000000000000000000e+02
1.110000000000000000e+02, 2.246153999999999996e+03, 4.061538000000000011e+03, 4.058974000000000160e+03, 4.118462000000000444e+03, 1.994872000000000071e+03, 0.000000000000000000e+00, 0.000000000000000000e+00, 1.000000000000000000e+02
1.120000000000000000e+02, 2.265128000000000156e+03, 4.059487000000000080e+03, 4.063077000000000226e+03, 4.117435999999999694e+03, 2.012820999999999913e+03, 0.000000000000000000e+00, 0.000000000000000000e+00, 1.000000000000000000e+02
1.130000000000000000e+02, 2.298461999999999989e+03, 4.057436000000000149e+03, 4.073333000000000084e+03, 4.130769000000000233e+03, 2.042564000000000078e+03, 0.000000000000000000e+00, 0.000000000000000000e+00, 1.000000000000000000e+02
1.140000000000000000e+02, 2.330768999999999778e+03, 4.067692000000000007e+03, 4.076922999999999774e+03, 4.140000000000000000e+03, 2.081025999999999840e+03, 0.000000000000000000e+00, 0.000000000000000000e+00, 1.000000000000000000e+02
1.150000000000000000e+02, 2.359487000000000080e+03, 4.075896999999999935e+03, 4.074358999999999924e+03, 4.136409999999999854e+03, 2.112307999999999993e+03, 0.000000000000000000e+00, 0.000000000000000000e+00, 1.000000000000000000e+02
1.160000000000000000e+02, 2.396922999999999774e+03, 4.073846000000000004e+03, 4.083077000000000226e+03, 4.131795000000000073e+03, 2.141025999999999840e+03, 0.000000000000000000e+00, 0.000000000000000000e+00, 1.000000000000000000e+02
1.170000000000000000e+02, 2.426666999999999916e+03, 4.071795000000000073e+03, 4.083077000000000226e+03, 4.132820999999999913e+03, 2.161538000000000011e+03, 0.000000000000000000e+00, 0.000000000000000000e+00, 1.000000000000000000e+02
1.180000000000000000e+02, 2.448717999999999847e+03, 4.059487000000000080e+03, 4.078461999999999989e+03, 4.133332999999999629e+03, 2.183077000000000226e+03, 0.000000000000000000e+00, 0.000000000000000000e+00, 1.000000000000000000e+02
1.190000000000000000e+02, 2.472820999999999913e+03, 4.049231000000000222e+03, 4.076922999999999774e+03, 4.124103000000000065e+03, 2.205641000000000076e+03, 0.000000000000000000e+00, 0.000000000000000000e+00, 1.000000000000000000e+02
1.200000000000000000e+02, 2.494871999999999844e+03, 4.051282000000000153e+03, 4.059487000000000080e+03, 4.112820999999999913e+03, 2.215896999999999935e+03, 0.000000000000000000e+00, 0.000000000000000000e+00, 1.000000000000000000e+02
1.210000000000000000e+02, 2.524614999999999782e+03, 4.053333000000000084e+03, 4.044103000000000065e+03, 4.118462000000000444e+03, 2.234871999999999844e+03, 0.000000000000000000e+00, 0.000000000000000000e+00, 1.000000000000000000e+02
1.220000000000000000e+02, 2.558974000000000160e+03, 4.055385000000000218e+03, 4.047179000000000087e+03, 4.133845999999999549e+03, 2.269744000000000142e+03, 0.000000000000000000e+00, 0.000000000000000000e+00, 1.000000000000000000e+02
1.230000000000000000e+02, 2.590255999999999858e+03, 4.057436000000000149e+03, 4.058461999999999989e+03, 4.137435999999999694e+03, 2.294871999999999844e+03, 0.000000000000000000e+00, 0.000000000000000000e+00, 1.000000000000000000e+02
1.240000000000000000e+02, 2.617436000000000149e+03, 4.055385000000000218e+03, 4.058974000000000160e+03, 4.137435999999999694e+03, 2.309231000000000222e+03, 0.000000000000000000e+00, 0.000000000000000000e+00, 1.000000000000000000e+02
1.250000000000000000e+02, 2.644614999999999782e+03, 4.055385000000000218e+03, 4.051795000000000073e+03, 4.139487000000000080e+03, 2.328717999999999847e+03, 0.000000000000000000e+00, 0.000000000000000000e+00, 1.000000000000000000e+02
1.260000000000000000e+02, 2.678461999999999989e+03, 4.059487000000000080e+03, 4.056409999999999854e+03, 4.130256000000000313e+03, 2.350255999999999858e+03, 0.000000000000000000e+00, 0.000000000000000000e+00, 1.000000000000000000e+02
1.270000000000000000e+02, 2.710255999999999858e+03, 4.057436000000000149e+03, 4.067179000000000087e+03, 4.121537999999999556e+03, 2.366666999999999916e+03, 0.000000000000000000e+00, 0.000000000000000000e+00, 1.000000000000000000e+02
0.000000000000000000e+00, 2.745128000000000156e+03, 4.055385000000000218e+03, 4.069744000000000142e+03, 4.124614999999999782e+03, 2.402563999999999851e+03, 0.000000000000000000e+00, 0.000000000000000000e+00, 1.000000000000000000e+02
1.000000000000000000e+00, 2.780512999999999920e+03, 4.063590000000000146e+03, 4.058974000000000160e+03, 4.121025999999999840e+03, 2.441538000000000011e+03, 0.000000000000000000e+00, 0.000000000000000000e+00, 1.000000000000000000e+02
2.000000000000000000e+00, 2.804614999999999782e+03, 4.069744000000000142e+03, 4.048204999999999927e+03, 4.112820999999999913e+03, 2.460000000000000000e+03, 0.000000000000000000e+00, 0.000000000000000000e+00, 1.000000000000000000e+02
3.000000000000000000e+00, 2.833846000000000004e+03, 4.063590000000000146e+03, 4.050768999999999778e+03, 4.120000000000000000e+03, 2.487692000000000007e+03, 0.000000000000000000e+00, 0.000000000000000000e+00, 1.000000000000000000e+02
4.000000000000000000e+00, 2.860000000000000000e+03, 4.063590000000000146e+03, 4.046666999999999916e+03, 4.120000000000000000e+03, 2.510768999999999778e+03, 0.000000000000000000e+00, 0.000000000000000000e+00, 1.000000000000000000e+02
5.000000000000000000e+00, 2.875896999999999935e+03, 4.069744000000000142e+03, 4.046153999999999996e+03, 4.104103000000000065e+03, 2.523077000000000226e+03, 0.000000000000000000e+00, 0.000000000000000000e+00, 1.000000000000000000e+02
6.000000000000000000e+00, 2.903077000000000226e+03, 4.069744000000000142e+03, 4.057949000000000069e+03, 4.107179000000000087e+03, 2.552820999999999913e+03, 0.000000000000000000e+00, 0.000000000000000000e+00, 1.000000000000000000e+02
7.000000000000000000e+00, 2.942050999999999931e+03, 4.073846000000000004e+03, 4.058461999999999989e+03, 4.120000000000000000e+03, 2.571282000000000153e+03, 0.000000000000000000e+00, 0.000000000000000000e+00, 1.000000000000000000e+02
8.000000000000000000e+00, 2.972307999999999993e+03, 4.088204999999999927e+03, 4.057436000000000149e+03, 4.114359000000000378e+03, 2.573846000000000004e+03, 0.000000000000000000e+00, 0.000000000000000000e+00, 1.000000000000000000e+02
9.000000000000000000e+00, 2.978974000000000160e+03, 4.094358999999999924e+03, 4.063590000000000146e+03, 4.100000000000000000e+03, 2.578974000000000160e+03, 0.000000000000000000e+00, 0.000000000000000000e+00, 1.000000000000000000e+02
1.000000000000000000e+01, 2.977949000000000069e+03, 4.084103000000000065e+03, 4.069744000000000142e+03, 4.105640999999999622e+03, 2.586153999999999996e+03, 0.000000000000000000e+00, 0.000000000000000000e+00, 1.000000000000000000e+02
1.100000000000000000e+01, 2.999487000000000080e+03, 4.080000000000000000e+03, 4.069744000000000142e+03, 4.125127999999999702e+03, 2.611795000000000073e+03, 0.000000000000000000e+00, 0.000000000000000000e+00, 1.000000000000000000e+02
1.200000000000000000e+01, 3.036922999999999774e+03, 4.077949000000000069e+03, 4.068204999999999927e+03, 4.136409999999999854e+03, 2.665128000000000156e+03, 0.000000000000000000e+00, 0.000000000000000000e+00, 1.000000000000000000e+02
1.300000000000000000e+01, 3.077436000000000149e+03, 4.073846000000000004e+03, 4.084614999999999782e+03, 4.149230999999999767e+03, 2.728204999999999927e+03, 0.000000000000000000e+00, 0.000000000000000000e+00, 1.000000000000000000e+02
1.400000000000000000e+01, 3.115385000000000218e+03, 4.077949000000000069e+03, 4.089744000000000142e+03, 4.165127999999999702e+03, 2.778974000000000160e+03, 0.000000000000000000e+00, 0.000000000000000000e+00, 1.000000000000000000e+02
1.500000000000000000e+01, 3.147692000000000007e+03, 4.096409999999999854e+03, 4.073333000000000084e+03, 4.161025999999999840e+03, 2.823077000000000226e+03, 0.000000000000000000e+00, 0.000000000000000000e+00, 1.000000000000000000e+02
1.600000000000000000e+01, 3.169744000000000142e+03, 4.104614999999999782e+03, 4.075385000000000218e+03, 4.152307999999999993e+03, 2.855385000000000218e+03, 0.000000000000000000e+00, 0.000000000000000000e+00, 1.000000000000000000e+02
1.700000000000000000e+01, 3.189744000000000142e+03, 4.104614999999999782e+03, 4.085128000000000156e+03, 4.159487000000000080e+03, 2.869231000000000222e+03, 0.000000000000000000e+00, 0.000000000000000000e+00, 1.000000000000000000e+02
1.800000000000000000e+01, 3.223590000000000146e+03, 4.098462000000000444e+03, 4.078974000000000160e+03, 4.161537999999999556e+03, 2.887179000000000087e+03, 0.000000000000000000e+00, 0.000000000000000000e+00, 1.000000000000000000e+02
1.900000000000000000e+01, 3.253846000000000004e+03, 4.098462000000000444e+03, 4.074358999999999924e+03, 4.145640999999999622e+03, 2.910768999999999778e+03, 0.000000000000000000e+00, 0.000000000000000000e+00, 1.000000000000000000e+02
2.000000000000000000e+01, 3.272820999999999913e+03, 4.112820999999999913e+03, 4.086153999999999996e+03, 4.149230999999999767e+03, 2.948717999999999847e+03, 0.000000000000000000e+00, 0.000000000000000000e+00, 1.000000000000000000e+02
2.100000000000000000e+01, 3.291282000000000153e+03, 4.121025999999999840e+03, 4.091795000000000073e+03, 4.163590000000000146e+03, 2.976922999999999774e+03, 0.000000000000000000e+00, 0.000000000000000000e+00, 1.000000000000000000e+02
2.200000000000000000e+01, 3.304103000000000065e+03, 4.114872000000000298e+03, 4.078974000000000160e+03, 4.151795000000000073e+03, 2.973846000000000004e+03, 0.000000000000000000e+00, 0.000000000000000000e+00, 1.000000000000000000e+02
2.300000000000000000e+01, 3.322563999999999851e+03, 4.116922999999999774e+03, 4.082050999999999931e+03, 4.139487000000000080e+03, 2.998461999999999989e+03, 0.000000000000000000e+00, 0.000000000000000000e+00, 1.000000000000000000e+02
2.400000000000000000e+01, 3.347179000000000087e+03, 4.127179000000000087e+03, 4.094358999999999924e+03, 4.145640999999999622e+03, 3.042563999999999851e+03, 0.000000000000000000e+00, 0.000000000000000000e+00, 1.000000000000000000e+02
2.500000000000000000e+01, 3.367179000000000087e+03, 4.118974000000000160e+03, 4.088717999999999847e+03, 4.146667000000000371e+03, 3.062563999999999851e+03, 0.000000000000000000e+00, 0.000000000000000000e+00, 1.000000000000000000e+02
2.600000000000000000e+01, 3.393333000000000084e+03, 4.104614999999999782e+03, 4.087179000000000087e+03, 4.140000000000000000e+03, 3.087179000000000087e+03, 0.000000000000000000e+00, 0.000000000000000000e+00, 1.000000000000000000e+02
2.700000000000000000e+01, 3.429231000000000222e+03, 4.092307999999999993e+03, 4.094358999999999924e+03, 4.145640999999999622e+03, 3.128717999999999847e+03, 0.000000000000000000e+00, 0.000000000000000000e+00, 1.000000000000000000e+02
2.800000000000000000e+01, 3.470768999999999778e+03, 4.090255999999999858e+03, 4.102564000000000306e+03, 4.169230999999999767e+03, 3.170768999999999778e+03, 0.000000000000000000e+00, 0.000000000000000000e+00, 1.000000000000000000e+02
2.900000000000000000e+01, 3.502563999999999851e+03, 4.090255999999999858e+03, 4.107179000000000087e+03, 4.184103000000000065e+03, 3.205128000000000156e+03, 0.000000000000000000e+00, 0.000000000000000000e+00, 1.000000000000000000e+02
3.000000000000000000e+01, 3.521025999999999840e+03, 4.092307999999999993e+03, 4.096922999999999774e+03, 4.169743999999999687e+03, 3.227692000000000007e+03, 0.000000000000000000e+00, 0.000000000000000000e+00, 1.000000000000000000e+02
3.100000000000000000e+01, 3.550255999999999858e+03, 4.100512999999999920e+03, 4.085641000000000076e+03, 4.153845999999999549e+03, 3.256409999999999854e+03, 0.000000000000000000e+00, 0.000000000000000000e+00, 1.000000000000000000e+02
3.200000000000000000e+01, 3.591795000000000073e+03, 4.118974000000000160e+03, 4.084614999999999782e+03, 4.150769000000000233e+03, 3.289231000000000222e+03, 0.000000000000000000e+00, 0.000000000000000000e+00, 1.000000000000000000e+02
3.300000000000000000e+01, 3.620000000000000000e+03, 4.129230999999999767e+03, 4.081538000000000011e+03, 4.150769000000000233e+03, 3.308204999999999927e+03, 0.000000000000000000e+00, 0.000000000000000000e+00, 1.000000000000000000e+02
3.400000000000000000e+01, 3.631282000000000153e+03, 4.127179000000000087e+03, 4.077436000000000149e+03, 4.151795000000000073e+03, 3.318461999999999989e+03, 0.000000000000000000e+00, 0.000000000000000000e+00, 1.000000000000000000e+02
3.500000000000000000e+01, 3.652820999999999913e+03, 4.131282000000000153e+03, 4.079487000000000080e+03, 4.145127999999999702e+03, 3.333333000000000084e+03, 0.000000000000000000e+00, 0.000000000000000000e+00, 1.000000000000000000e+02
3.600000000000000000e+01, 3.690255999999999858e+03, 4.141537999999999556e+03, 4.083590000000000146e+03, 4.137948999999999614e+03, 3.360000000000000000e+03, 0.000000000000000000e+00, 0.000000000000000000e+00, 1.000000000000000000e+02
3.700000000000000000e+01, 3.714871999999999844e+03, 4.137435999999999694e+03, 4.081025999999999840e+03, 4.140000000000000000e+03, 3.383590000000000146e+03, 0.000000000000000000e+00, 0.000000000000000000e+00, 1.000000000000000000e+02
3.800000000000000000e+01, 3.741025999999999840e+03, 4.131282000000000153e+03, 4.086153999999999996e+03, 4.147179000000000087e+03, 3.415896999999999935e+03, 0.000000000000000000e+00, 0.000000000000000000e+00, 1.000000000000000000e+02
3.900000000000000000e+01, 3.777949000000000069e+03, 4.133332999999999629e+03, 4.093333000000000084e+03, 4.152307999999999993e+03, 3.455896999999999935e+03, 0.000000000000000000e+00, 0.000000000000000000e+00, 1.000000000000000000e+02
4.000000000000000000e+01, 3.795896999999999935e+03, 4.129230999999999767e+03, 4.080512999999999920e+03, 4.151795000000000073e+03, 3.470768999999999778e+03, 0.000000000000000000e+00, 0.000000000000000000e+00, 1.000000000000000000e+02
4.100000000000000000e+01, 3.809231000000000222e+03, 4.118974000000000160e+03, 4.077949000000000069e+03, 4.149230999999999767e+03, 3.483077000000000226e+03, 0.000000000000000000e+00, 0.000000000000000000e+00, 1.000000000000000000e+02
4.200000000000000000e+01, 3.838461999999999989e+03, 4.131282000000000153e+03, 4.094358999999999924e+03, 4.158462000000000444e+03, 3.516409999999999854e+03, 0.000000000000000000e+00, 0.000000000000000000e+00, 1.000000000000000000e+02
4.300000000000000000e+01, 3.868204999999999927e+03, 4.143590000000000146e+03, 4.102564000000000306e+03, 4.172307999999999993e+03, 3.554871999999999844e+03, 0.000000000000000000e+00, 0.000000000000000000e+00, 1.000000000000000000e+02
4.400000000000000000e+01, 3.893846000000000004e+03, 4.133332999999999629e+03, 4.098974000000000160e+03, 4.161537999999999556e+03, 3.582563999999999851e+03, 0.000000000000000000e+00, 0.000000000000000000e+00, 1.000000000000000000e+02
4.500000000000000000e+01, 3.927692000000000007e+03, 4.127179000000000087e+03, 4.098462000000000444e+03, 4.148717999999999847e+03, 3.604103000000000065e+03, 0.000000000000000000e+00, 0.000000000000000000e+00, 1.000000000000000000e+02
4.600000000000000000e+01, 3.963077000000000226e+03, 4.135385000000000218e+03, 4.110769000000000233e+03, 4.171795000000000073e+03, 3.637436000000000149e+03, 0.000000000000000000e+00, 0.000000000000000000e+00, 1.000000000000000000e+02
4.700000000000000000e+01, 3.984103000000000065e+03, 4.143590000000000146e+03, 4.111282000000000153e+03, 4.187692000000000007e+03, 3.666153999999999996e+03, 0.000000000000000000e+00, 0.000000000000000000e+00, 1.000000000000000000e+02
4.800000000000000000e+01, 4.002563999999999851e+03, 4.145640999999999622e+03, 4.098974000000000160e+03, 4.163077000000000226e+03, 3.684614999999999782e+03, 0.000000000000000000e+00, 0.000000000000000000e+00, 1.000000000000000000e+02
4.900000000000000000e+01, 4.040512999999999920e+03, 4.141537999999999556e+03, 4.101537999999999556e+03, 4.152307999999999993e+03, 3.718974000000000160e+03, 0.000000000000000000e+00, 0.000000000000000000e+00, 1.000000000000000000e+02
5.000000000000000000e+01, 4.073333000000000084e+03, 4.145640999999999622e+03, 4.103077000000000226e+03, 4.166667000000000371e+03, 3.754358999999999924e+03, 0.000000000000000000e+00, 0.000000000000000000e+00, 1.000000000000000000e+02
5.100000000000000000e+01, 4.089744000000000142e+03, 4.149743999999999687e+03, 4.087692000000000007e+03, 4.162051000000000386e+03, 3.781025999999999840e+03, 0.000000000000000000e+00, 1.000000000000000000e+00, 1.000000000000000000e+02
5.200000000000000000e+01, 4.107692000000000007e+03, 4.139487000000000080e+03, 4.069231000000000222e+03, 4.149743999999999687e+03, 3.808204999999999927e+03, 0.000000000000000000e+00, 1.000000000000000000e+00, 1.000000000000000000e+02
