COUNTER, AF3, T7, Pz, T8, AF4, MARKERS['YES','NO'], TICK, ContactQuality
6.300000000000000000e+01, 3.045641000000000076e+03, 3.995896999999999935e+03, 4.133332999999999629e+03, 4.002563999999999851e+03, 2.664614999999999782e+03, 1.000000000000000000e+00, 1.000000000000000000e+00, 1.000000000000000000e+02
6.400000000000000000e+01, 3.025128000000000156e+03, 3.989744000000000142e+03, 4.111282000000000153e+03, 4.003077000000000226e+03, 2.637436000000000149e+03, 1.000000000000000000e+00, 1.000000000000000000e+00, 1.000000000000000000e+02
6.500000000000000000e+01, 2.996922999999999774e+03, 3.983590000000000146e+03, 4.092307999999999993e+03, 3.988204999999999927e+03, 2.610255999999999858e+03, 1.000000000000000000e+00, 1.000000000000000000e+00, 1.000000000000000000e+02
6.600000000000000000e+01, 2.987179000000000087e+03, 3.987692000000000007e+03, 4.081538000000000011e+03, 3.976409999999999854e+03, 2.598974000000000160e+03, 1.000000000000000000e+00, 1.000000000000000000e+00, 1.000000000000000000e+02
6.700000000000000000e+01, 2.991795000000000073e+03, 4.000000000000000000e+03, 4.076922999999999774e+03, 3.980512999999999920e+03, 2.600512999999999920e+03, 1.000000000000000000e+00, 1.000000000000000000e+00, 1.000000000000000000e+02
6.800000000000000000e+01, 2.978974000000000160e+03, 4.006153999999999996e+03, 4.075385000000000218e+03, 3.973333000000000084e+03, 2.580512999999999920e+03, 1.000000000000000000e+00, 1.000000000000000000e+00, 1.000000000000000000e+02
6.900000000000000000e+01, 2.969744000000000142e+03, 4.002050999999999931e+03, 4.077436000000000149e+03, 3.971795000000000073e+03, 2.556409999999999854e+03, 1.000000000000000000e+00, 1.000000000000000000e+00, 1.000000000000000000e+02
7.000000000000000000e+01, 2.976922999999999774e+03, 4.006153999999999996e+03, 4.091795000000000073e+03, 3.988204999999999927e+03, 2.553333000000000084e+03, 1.000000000000000000e+00, 1.000000000000000000e+00, 1.000000000000000000e+02
7.100000000000000000e+01, 2.966153999999999996e+03, 4.020512999999999920e+03, 4.106667000000000371e+03, 3.988717999999999847e+03, 2.549231000000000222e+03, 1.000000000000000000e+00, 1.000000000000000000e+00, 1.000000000000000000e+02
7.200000000000000000e+01, 2.948717999999999847e+03, 4.022563999999999851e+03, 4.107692000000000007e+03, 3.982050999999999931e+03, 2.536409999999999854e+03, 1.000000000000000000e+00, 1.000000000000000000e+00, 1.000000000000000000e+02
7.300000000000000000e+01, 2.943590000000000146e+03, 4.024614999999999782e+03, 4.108717999999999847e+03, 3.987692000000000007e+03, 2.525641000000000076e+03, 1.000000000000000000e+00, 1.000000000000000000e+00, 1.000000000000000000e+02
7.400000000000000000e+01, 2.938974000000000160e+03, 4.026666999999999916e+03, 4.107692000000000007e+03, 3.976922999999999774e+03, 2.522050999999999931e+03, 1.000000000000000000e+00, 1.000000000000000000e+00, 1.000000000000000000e+02
7.500000000000000000e+01, 2.932820999999999913e+03, 4.022563999999999851e+03, 4.094358999999999924e+03, 3.969231000000000222e+03, 2.522563999999999851e+03, 1.000000000000000000e+00, 1.000000000000000000e+00, 1.000000000000000000e+02
7.600000000000000000e+01, 2.923590000000000146e+03, 4.014358999999999924e+03, 4.082050999999999931e+03, 3.987179000000000087e+03, 2.510768999999999778e+03, 1.000000000000000000e+00, 1.000000000000000000e+00, 1.000000000000000000e+02
7.700000000000000000e+01, 2.901538000000000011e+03, 4.014358999999999924e+03, 4.072820999999999913e+03, 3.984614999999999782e+03, 2.476409999999999854e+03, 1.000000000000000000e+00, 1.000000000000000000e+00, 1.000000000000000000e+02
7.800000000000000000e+01, 2.878461999999999989e+03, 4.020512999999999920e+03, 4.065128000000000156e+03, 3.969744000000000142e+03, 2.440000000000000000e+03, 1.000000000000000000e+00, 1.000000000000000000e+00, 1.000000000000000000e+02
7.900000000000000000e+01, 2.856922999999999774e+03, 4.022563999999999851e+03, 4.068204999999999927e+03, 3.981025999999999840e+03, 2.411795000000000073e+03, 1.000000000000000000e+00, 1.000000000000000000e+00, 1.000000000000000000e+02
8.000000000000000000e+01, 2.830255999999999858e+03, 4.018461999999999989e+03, 4.083077000000000226e+03, 3.989744000000000142e+03, 2.385128000000000156e+03, 1.000000000000000000e+00, 1.000000000000000000e+00, 1.000000000000000000e+02
8.100000000000000000e+01, 2.811282000000000153e+03, 4.020512999999999920e+03, 4.101537999999999556e+03, 3.981025999999999840e+03, 2.370255999999999858e+03, 1.000000000000000000e+00, 1.000000000000000000e+00, 1.000000000000000000e+02
8.200000000000000000e+01, 2.785128000000000156e+03, 4.028717999999999847e+03, 4.115385000000000218e+03, 3.987692000000000007e+03, 2.363077000000000226e+03, 1.000000000000000000e+00, 1.000000000000000000e+00, 1.000000000000000000e+02
8.300000000000000000e+01, 2.726666999999999916e+03, 4.024614999999999782e+03, 4.114872000000000298e+03, 3.994871999999999844e+03, 2.344103000000000065e+03, 1.000000000000000000e+00, 1.000000000000000000e+00, 1.000000000000000000e+02
8.400000000000000000e+01, 2.673333000000000084e+03, 4.018461999999999989e+03, 4.107179000000000087e+03, 3.977949000000000069e+03, 2.326666999999999916e+03, 1.000000000000000000e+00, 1.000000000000000000e+00, 1.000000000000000000e+02
8.500000000000000000e+01, 2.657436000000000149e+03, 4.026666999999999916e+03, 4.098974000000000160e+03, 3.967692000000000007e+03, 2.318461999999999989e+03, 1.000000000000000000e+00, 1.000000000000000000e+00, 1.000000000000000000e+02
8.600000000000000000e+01, 2.643590000000000146e+03, 4.030768999999999778e+03, 4.081538000000000011e+03, 3.981025999999999840e+03, 2.302563999999999851e+03, 1.000000000000000000e+00, 1.000000000000000000e+00, 1.000000000000000000e+02
8.700000000000000000e+01, 2.627179000000000087e+03, 4.028717999999999847e+03, 4.075896999999999935e+03, 3.989744000000000142e+03, 2.297436000000000149e+03, 1.000000000000000000e+00, 1.000000000000000000e+00, 1.000000000000000000e+02
8.800000000000000000e+01, 2.630768999999999778e+03, 4.038974000000000160e+03, 4.088717999999999847e+03, 3.982050999999999931e+03, 2.312820999999999913e+03, 1.000000000000000000e+00, 1.000000000000000000e+00, 1.000000000000000000e+02
8.900000000000000000e+01, 2.633846000000000004e+03, 4.045128000000000156e+03, 4.082050999999999931e+03, 3.982050999999999931e+03, 2.310255999999999858e+03, 1.000000000000000000e+00, 1.000000000000000000e+00, 1.000000000000000000e+02
9.000000000000000000e+01, 2.621538000000000011e+03, 4.034871999999999844e+03, 4.071282000000000153e+03, 3.991282000000000153e+03, 2.289744000000000142e+03, 1.000000000000000000e+00, 1.000000000000000000e+00, 1.000000000000000000e+02
9.100000000000000000e+01, 2.615385000000000218e+03, 4.024614999999999782e+03, 4.085128000000000156e+03, 3.986666999999999916e+03, 2.283590000000000146e+03, 1.000000000000000000e+00, 1.000000000000000000e+00, 1.000000000000000000e+02
9.200000000000000000e+01, 2.619487000000000080e+03, 4.036922999999999774e+03, 4.095896999999999935e+03, 3.971795000000000073e+03, 2.293333000000000084e+03, 1.000000000000000000e+00, 1.000000000000000000e+00, 1.000000000000000000e+02
9.300000000000000000e+01, 2.618461999999999989e+03, 4.059487000000000080e+03, 4.087692000000000007e+03, 3.965641000000000076e+03, 2.292820999999999913e+03, 1.000000000000000000e+00, 1.000000000000000000e+00, 1.000000000000000000e+02
9.400000000000000000e+01, 2.618461999999999989e+03, 4.067692000000000007e+03, 4.093333000000000084e+03, 3.977949000000000069e+03, 2.289231000000000222e+03, 1.000000000000000000e+00, 1.000000000000000000e+00, 1.000000000000000000e+02
9.500000000000000000e+01, 2.630768999999999778e+03, 4.061538000000000011e+03, 4.106667000000000371e+03, 3.991282000000000153e+03, 2.295896999999999935e+03, 1.000000000000000000e+00, 1.000000000000000000e+00, 1.000000000000000000e+02
9.600000000000000000e+01, 2.636409999999999854e+03, 4.057436000000000149e+03, 4.095385000000000218e+03, 3.982050999999999931e+03, 2.294871999999999844e+03, 1.000000000000000000e+00, 1.000000000000000000e+00, 1.000000000000000000e+02
9.700000000000000000e+01, 2.632307999999999993e+03, 4.059487000000000080e+03, 4.080000000000000000e+03, 3.965128000000000156e+03, 2.288717999999999847e+03, 1.000000000000000000e+00, 1.000000000000000000e+00, 1.000000000000000000e+02
9.800000000000000000e+01, 2.646666999999999916e+03, 4.067692000000000007e+03, 4.085128000000000156e+03, 3.973846000000000004e+03, 2.293333000000000084e+03, 1.000000000000000000e+00, 1.000000000000000000e+00, 1.000000000000000000e+02
9.900000000000000000e+01, 2.671795000000000073e+03, 4.075896999999999935e+03, 4.095896999999999935e+03, 3.983590000000000146e+03, 2.292820999999999913e+03, 1.000000000000000000e+00, 1.000000000000000000e+00, 1.000000000000000000e+02
1.000000000000000000e+02, 2.673846000000000004e+03, 4.075896999999999935e+03, 4.096409999999999854e+03, 3.971795000000000073e+03, 2.283590000000000146e+03, 1.000000000000000000e+00, 1.000000000000000000e+00, 1.000000000000000000e+02
1.010000000000000000e+02, 2.673333000000000084e+03, 4.073846000000000004e+03, 4.097435999999999694e+03, 3.972307999999999993e+03, 2.287179000000000087e+03, 1.000000000000000000e+00, 1.000000000000000000e+00, 1.000000000000000000e+02
1.020000000000000000e+02, 2.694871999999999844e+03, 4.075896999999999935e+03, 4.100512999999999920e+03, 3.985641000000000076e+03, 2.306153999999999996e+03, 1.000000000000000000e+00, 1.000000000000000000e+00, 1.000000000000000000e+02
1.030000000000000000e+02, 2.713846000000000004e+03, 4.071795000000000073e+03, 4.097948999999999614e+03, 3.980512999999999920e+03, 2.314871999999999844e+03, 1.000000000000000000e+00, 1.000000000000000000e+00, 1.000000000000000000e+02
1.040000000000000000e+02, 2.712820999999999913e+03, 4.059487000000000080e+03, 4.094358999999999924e+03, 3.966153999999999996e+03, 2.310768999999999778e+03, 1.000000000000000000e+00, 1.000000000000000000e+00, 1.000000000000000000e+02
1.050000000000000000e+02, 2.718974000000000160e+03, 4.057436000000000149e+03, 4.098974000000000160e+03, 3.972307999999999993e+03, 2.312820999999999913e+03, 1.000000000000000000e+00, 1.000000000000000000e+00, 1.000000000000000000e+02
1.060000000000000000e+02, 2.742050999999999931e+03, 4.069744000000000142e+03, 4.113845999999999549e+03, 3.984103000000000065e+03, 2.327179000000000087e+03, 1.000000000000000000e+00, 1.000000000000000000e+00, 1.000000000000000000e+02
1.070000000000000000e+02, 2.763590000000000146e+03, 4.080000000000000000e+03, 4.127692000000000007e+03, 3.985128000000000156e+03, 2.339487000000000080e+03, 1.000000000000000000e+00, 1.000000000000000000e+00, 1.000000000000000000e+02
1.080000000000000000e+02, 2.772307999999999993e+03, 4.075896999999999935e+03, 4.128204999999999927e+03, 3.977436000000000149e+03, 2.332307999999999993e+03, 1.000000000000000000e+00, 1.000000000000000000e+00, 1.000000000000000000e+02
1.090000000000000000e+02, 2.777436000000000149e+03, 4.069744000000000142e+03, 4.119487000000000080e+03, 3.960000000000000000e+03, 2.324614999999999782e+03, 1.000000000000000000e+00, 1.000000000000000000e+00, 1.000000000000000000e+02
1.100000000000000000e+02, 2.795896999999999935e+03, 4.069744000000000142e+03, 4.122051000000000386e+03, 3.962050999999999931e+03, 2.343077000000000226e+03, 1.000000000000000000e+00, 1.000000000000000000e+00, 1.000000000000000000e+02
1.110000000000000000e+02, 2.821025999999999840e+03, 4.067692000000000007e+03, 4.122051000000000386e+03, 3.982563999999999851e+03, 2.367179000000000087e+03, 1.000000000000000000e+00, 1.000000000000000000e+00, 1.000000000000000000e+02
1.120000000000000000e+02, 2.834358999999999924e+03, 4.065641000000000076e+03, 4.097948999999999614e+03, 3.980000000000000000e+03, 2.375896999999999935e+03, 1.000000000000000000e+00, 1.000000000000000000e+00, 1.000000000000000000e+02
1.130000000000000000e+02, 2.839487000000000080e+03, 4.061538000000000011e+03, 4.078974000000000160e+03, 3.962563999999999851e+03, 2.387179000000000087e+03, 1.000000000000000000e+00, 1.000000000000000000e+00, 1.000000000000000000e+02
1.140000000000000000e+02, 2.858974000000000160e+03, 4.061538000000000011e+03, 4.077436000000000149e+03, 3.972820999999999913e+03, 2.401025999999999840e+03, 1.000000000000000000e+00, 1.000000000000000000e+00, 1.000000000000000000e+02
1.150000000000000000e+02, 2.885128000000000156e+03, 4.059487000000000080e+03, 4.074871999999999844e+03, 3.981538000000000011e+03, 2.408717999999999847e+03, 1.000000000000000000e+00, 1.000000000000000000e+00, 1.000000000000000000e+02
1.160000000000000000e+02, 2.896922999999999774e+03, 4.057436000000000149e+03, 4.075385000000000218e+03, 3.968717999999999847e+03, 2.420512999999999920e+03, 1.000000000000000000e+00, 1.000000000000000000e+00, 1.000000000000000000e+02
1.170000000000000000e+02, 2.906153999999999996e+03, 4.055385000000000218e+03, 4.076922999999999774e+03, 3.972820999999999913e+03, 2.437436000000000149e+03, 1.000000000000000000e+00, 1.000000000000000000e+00, 1.000000000000000000e+02
1.180000000000000000e+02, 2.922050999999999931e+03, 4.059487000000000080e+03, 4.064103000000000065e+03, 3.971282000000000153e+03, 2.450255999999999858e+03, 1.000000000000000000e+00, 1.000000000000000000e+00, 1.000000000000000000e+02
1.190000000000000000e+02, 2.936922999999999774e+03, 4.073846000000000004e+03, 4.058974000000000160e+03, 3.952820999999999913e+03, 2.455385000000000218e+03, 1.000000000000000000e+00, 1.000000000000000000e+00, 1.000000000000000000e+02
1.200000000000000000e+02, 2.952820999999999913e+03, 4.077949000000000069e+03, 4.074871999999999844e+03, 3.964103000000000065e+03, 2.458974000000000160e+03, 1.000000000000000000e+00, 1.000000000000000000e+00, 1.000000000000000000e+02
1.210000000000000000e+02, 2.960000000000000000e+03, 4.061538000000000011e+03, 4.080000000000000000e+03, 3.978461999999999989e+03, 2.465128000000000156e+03, 1.000000000000000000e+00, 1.000000000000000000e+00, 1.000000000000000000e+02
1.220000000000000000e+02, 2.959487000000000080e+03, 4.051282000000000153e+03, 4.066153999999999996e+03, 3.959487000000000080e+03, 2.473846000000000004e+03, 1.000000000000000000e+00, 1.000000000000000000e+00, 1.000000000000000000e+02
1.230000000000000000e+02, 2.974358999999999924e+03, 4.059487000000000080e+03, 4.062563999999999851e+03, 3.953333000000000084e+03, 2.486666999999999916e+03, 1.000000000000000000e+00, 1.000000000000000000e+00, 1.000000000000000000e+02
1.240000000000000000e+02, 3.000512999999999920e+03, 4.073846000000000004e+03, 4.080512999999999920e+03, 3.973333000000000084e+03, 2.508717999999999847e+03, 1.000000000000000000e+00, 1.000000000000000000e+00, 1.000000000000000000e+02
1.250000000000000000e+02, 3.011282000000000153e+03, 4.080000000000000000e+03, 4.098462000000000444e+03, 3.979487000000000080e+03, 2.531282000000000153e+03, 1.000000000000000000e+00, 1.000000000000000000e+00, 1.000000000000000000e+02
1.260000000000000000e+02, 3.009231000000000222e+03, 4.084103000000000065e+03, 4.085128000000000156e+03, 3.970255999999999858e+03, 2.530255999999999858e+03, 1.000000000000000000e+00, 1.000000000000000000e+00, 1.000000000000000000e+02
1.270000000000000000e+02, 3.021538000000000011e+03, 4.077949000000000069e+03, 4.069744000000000142e+03, 3.957436000000000149e+03, 2.522563999999999851e+03, 1.000000000000000000e+00, 1.000000000000000000e+00, 1.000000000000000000e+02
0.000000000000000000e+00, 3.033846000000000004e+03, 4.073846000000000004e+03, 4.085641000000000076e+03, 3.942563999999999851e+03, 2.536409999999999854e+03, 1.000000000000000000e+00, 1.000000000000000000e+00, 1.000000000000000000e+02
1.000000000000000000e+00, 3.045128000000000156e+03, 4.084103000000000065e+03, 4.098462000000000444e+03, 3.944614999999999782e+03, 2.558974000000000160e+03, 1.000000000000000000e+00, 1.000000000000000000e+00, 1.000000000000000000e+02
2.000000000000000000e+00, 3.080512999999999920e+03, 4.092307999999999993e+03, 4.089231000000000222e+03, 3.955385000000000218e+03, 2.583590000000000146e+03, 1.000000000000000000e+00, 1.000000000000000000e+00, 1.000000000000000000e+02
3.000000000000000000e+00, 3.116922999999999774e+03, 4.086153999999999996e+03, 4.084103000000000065e+03, 3.961025999999999840e+03, 2.612307999999999993e+03, 1.000000000000000000e+00, 1.000000000000000000e+00, 1.000000000000000000e+02
4.000000000000000000e+00, 3.136922999999999774e+03, 4.082050999999999931e+03, 4.087692000000000007e+03, 3.957436000000000149e+03, 2.641538000000000011e+03, 1.000000000000000000e+00, 1.000000000000000000e+00, 1.000000000000000000e+02
5.000000000000000000e+00, 3.166666999999999916e+03, 4.088204999999999927e+03, 4.091795000000000073e+03, 3.947179000000000087e+03, 2.671795000000000073e+03, 1.000000000000000000e+00, 1.000000000000000000e+00, 1.000000000000000000e+02
6.000000000000000000e+00, 3.201025999999999840e+03, 4.094358999999999924e+03, 4.093333000000000084e+03, 3.949744000000000142e+03, 2.691282000000000153e+03, 1.000000000000000000e+00, 1.000000000000000000e+00, 1.000000000000000000e+02
7.000000000000000000e+00, 3.206153999999999996e+03, 4.088204999999999927e+03, 4.084614999999999782e+03, 3.961538000000000011e+03, 2.697949000000000069e+03, 1.000000000000000000e+00, 1.000000000000000000e+00, 1.000000000000000000e+02
8.000000000000000000e+00, 3.206666999999999916e+03, 4.088204999999999927e+03, 4.082050999999999931e+03, 3.961025999999999840e+03, 2.713846000000000004e+03, 1.000000000000000000e+00, 1.000000000000000000e+00, 1.000000000000000000e+02
9.000000000000000000e+00, 3.230255999999999858e+03, 4.100512999999999920e+03, 4.091795000000000073e+03, 3.955385000000000218e+03, 2.741025999999999840e+03, 1.000000000000000000e+00, 1.000000000000000000e+00, 1.000000000000000000e+02
1.000000000000000000e+01, 3.242563999999999851e+03, 4.094358999999999924e+03, 4.086153999999999996e+03, 3.958461999999999989e+03, 2.753333000000000084e+03, 1.000000000000000000e+00, 1.000000000000000000e+00, 1.000000000000000000e+02
1.100000000000000000e+01, 3.240512999999999920e+03, 4.088204999999999927e+03, 4.074358999999999924e+03, 3.954358999999999924e+03, 2.751282000000000153e+03, 1.000000000000000000e+00, 1.000000000000000000e+00, 1.000000000000000000e+02
1.200000000000000000e+01, 3.261025999999999840e+03, 4.102564000000000306e+03, 4.084103000000000065e+03, 3.953846000000000004e+03, 2.772820999999999913e+03, 1.000000000000000000e+00, 1.000000000000000000e+00, 1.000000000000000000e+02
1.300000000000000000e+01, 3.291795000000000073e+03, 4.108717999999999847e+03, 4.091795000000000073e+03, 3.969231000000000222e+03, 2.808717999999999847e+03, 1.000000000000000000e+00, 1.000000000000000000e+00, 1.000000000000000000e+02
1.400000000000000000e+01, 3.296409999999999854e+03, 4.092307999999999993e+03, 4.080000000000000000e+03, 3.967692000000000007e+03, 2.818974000000000160e+03, 1.000000000000000000e+00, 1.000000000000000000e+00, 1.000000000000000000e+02
1.500000000000000000e+01, 3.296922999999999774e+03, 4.084103000000000065e+03, 4.068204999999999927e+03, 3.955385000000000218e+03, 2.818974000000000160e+03, 1.000000000000000000e+00, 1.000000000000000000e+00, 1.000000000000000000e+02
1.600000000000000000e+01, 3.315896999999999935e+03, 4.084103000000000065e+03, 4.061025999999999840e+03, 3.956409999999999854e+03, 2.833846000000000004e+03, 1.000000000000000000e+00, 1.000000000000000000e+00, 1.000000000000000000e+02
1.700000000000000000e+01, 3.333846000000000004e+03, 4.080000000000000000e+03, 4.062563999999999851e+03, 3.959487000000000080e+03, 2.853846000000000004e+03, 1.000000000000000000e+00, 1.000000000000000000e+00, 1.000000000000000000e+02
1.800000000000000000e+01, 3.341538000000000011e+03, 4.084103000000000065e+03, 4.073846000000000004e+03, 3.955896999999999935e+03, 2.866153999999999996e+03, 1.000000000000000000e+00, 1.000000000000000000e+00, 1.000000000000000000e+02
1.900000000000000000e+01, 3.354871999999999844e+03, 4.094358999999999924e+03, 4.085641000000000076e+03, 3.960000000000000000e+03, 2.888204999999999927e+03, 1.000000000000000000e+00, 1.000000000000000000e+00, 1.000000000000000000e+02
2.000000000000000000e+01, 3.381025999999999840e+03, 4.104614999999999782e+03, 4.090768999999999778e+03, 3.970255999999999858e+03, 2.922050999999999931e+03, 1.000000000000000000e+00, 1.000000000000000000e+00, 1.000000000000000000e+02
2.100000000000000000e+01, 3.401025999999999840e+03, 4.102564000000000306e+03, 4.082050999999999931e+03, 3.976922999999999774e+03, 2.940512999999999920e+03, 1.000000000000000000e+00, 1.000000000000000000e+00, 1.000000000000000000e+02
2.200000000000000000e+01, 3.407179000000000087e+03, 4.090255999999999858e+03, 4.066153999999999996e+03, 3.974871999999999844e+03, 2.945128000000000156e+03, 1.000000000000000000e+00, 1.000000000000000000e+00, 1.000000000000000000e+02
2.300000000000000000e+01, 3.411282000000000153e+03, 4.092307999999999993e+03, 4.056922999999999774e+03, 3.957949000000000069e+03, 2.954358999999999924e+03, 1.000000000000000000e+00, 1.000000000000000000e+00, 1.000000000000000000e+02
2.400000000000000000e+01, 3.425641000000000076e+03, 4.092307999999999993e+03, 4.061025999999999840e+03, 3.955385000000000218e+03, 2.972307999999999993e+03, 1.000000000000000000e+00, 1.000000000000000000e+00, 1.000000000000000000e+02
2.500000000000000000e+01, 3.449231000000000222e+03, 4.065641000000000076e+03, 4.070768999999999778e+03, 3.974871999999999844e+03, 3.007692000000000007e+03, 1.000000000000000000e+00, 1.000000000000000000e+00, 1.000000000000000000e+02
2.600000000000000000e+01, 3.464614999999999782e+03, 4.043077000000000226e+03, 4.074871999999999844e+03, 3.974871999999999844e+03, 3.034871999999999844e+03, 1.000000000000000000e+00, 1.000000000000000000e+00, 1.000000000000000000e+02
2.700000000000000000e+01, 3.468717999999999847e+03, 4.063590000000000146e+03, 4.073846000000000004e+03, 3.966666999999999916e+03, 3.032820999999999913e+03, 1.000000000000000000e+00, 1.000000000000000000e+00, 1.000000000000000000e+02
2.800000000000000000e+01, 3.474358999999999924e+03, 4.088204999999999927e+03, 4.077436000000000149e+03, 3.976409999999999854e+03, 3.034358999999999924e+03, 1.000000000000000000e+00, 1.000000000000000000e+00, 1.000000000000000000e+02
2.900000000000000000e+01, 3.495385000000000218e+03, 4.098462000000000444e+03, 4.082563999999999851e+03, 3.978974000000000160e+03, 3.062050999999999931e+03, 1.000000000000000000e+00, 1.000000000000000000e+00, 1.000000000000000000e+02
3.000000000000000000e+01, 3.525641000000000076e+03, 4.102564000000000306e+03, 4.088717999999999847e+03, 3.968717999999999847e+03, 3.088204999999999927e+03, 1.000000000000000000e+00, 1.000000000000000000e+00, 1.000000000000000000e+02
3.100000000000000000e+01, 3.541025999999999840e+03, 4.094358999999999924e+03, 4.087692000000000007e+03, 3.960512999999999920e+03, 3.093846000000000004e+03, 1.000000000000000000e+00, 1.000000000000000000e+00, 1.000000000000000000e+02
3.200000000000000000e+01, 3.546666999999999916e+03, 4.084103000000000065e+03, 4.074358999999999924e+03, 3.958461999999999989e+03, 3.103077000000000226e+03, 1.000000000000000000e+00, 1.000000000000000000e+00, 1.000000000000000000e+02
3.300000000000000000e+01, 3.567692000000000007e+03, 4.086153999999999996e+03, 4.075385000000000218e+03, 3.965128000000000156e+03, 3.134871999999999844e+03, 1.000000000000000000e+00, 1.000000000000000000e+00, 1.000000000000000000e+02
3.400000000000000000e+01, 3.599487000000000080e+03, 4.086153999999999996e+03, 4.094358999999999924e+03, 3.970768999999999778e+03, 3.170768999999999778e+03, 1.000000000000000000e+00, 1.000000000000000000e+00, 1.000000000000000000e+02
3.500000000000000000e+01, 3.617949000000000069e+03, 4.082050999999999931e+03, 4.096922999999999774e+03, 3.977949000000000069e+03, 3.191795000000000073e+03, 1.000000000000000000e+00, 1.000000000000000000e+00, 1.000000000000000000e+02
3.600000000000000000e+01, 3.628204999999999927e+03, 4.092307999999999993e+03, 4.087692000000000007e+03, 3.986153999999999996e+03, 3.201025999999999840e+03, 1.000000000000000000e+00, 1.000000000000000000e+00, 1.000000000000000000e+02
3.700000000000000000e+01, 3.642563999999999851e+03, 4.102564000000000306e+03, 4.092307999999999993e+03, 3.983590000000000146e+03, 3.215385000000000218e+03, 1.000000000000000000e+00, 1.000000000000000000e+00, 1.000000000000000000e+02
3.800000000000000000e+01, 3.657949000000000069e+03, 4.106667000000000371e+03, 4.084614999999999782e+03, 3.977436000000000149e+03, 3.235385000000000218e+03, 1.000000000000000000e+00, 1.000000000000000000e+00, 1.000000000000000000e+02
3.900000000000000000e+01, 3.675385000000000218e+03, 4.110769000000000233e+03, 4.067692000000000007e+03, 3.982563999999999851e+03, 3.253333000000000084e+03, 1.000000000000000000e+00, 1.000000000000000000e+00, 1.000000000000000000e+02
4.000000000000000000e+01, 3.690768999999999778e+03, 4.108717999999999847e+03, 4.070255999999999858e+03, 3.977436000000000149e+03, 3.270255999999999858e+03, 1.000000000000000000e+00, 1.000000000000000000e+00, 1.000000000000000000e+02
4.100000000000000000e+01, 3.698974000000000160e+03, 4.108717999999999847e+03, 4.074871999999999844e+03, 3.965641000000000076e+03, 3.285128000000000156e+03, 1.000000000000000000e+00, 1.000000000000000000e+00, 1.000000000000000000e+02
4.200000000000000000e+01, 3.709231000000000222e+03, 4.112820999999999913e+03, 4.076409999999999854e+03, 3.982050999999999931e+03, 3.301025999999999840e+03, 1.000000000000000000e+00, 1.000000000000000000e+00, 1.000000000000000000e+02
4.300000000000000000e+01, 3.732307999999999993e+03, 4.118974000000000160e+03, 4.088717999999999847e+03, 3.998974000000000160e+03, 3.334358999999999924e+03, 1.000000000000000000e+00, 1.000000000000000000e+00, 1.000000000000000000e+02
4.400000000000000000e+01, 3.751282000000000153e+03, 4.123077000000000226e+03, 4.095385000000000218e+03, 3.987692000000000007e+03, 3.363077000000000226e+03, 1.000000000000000000e+00, 1.000000000000000000e+00, 1.000000000000000000e+02
4.500000000000000000e+01, 3.757949000000000069e+03, 4.123077000000000226e+03, 4.089744000000000142e+03, 3.979487000000000080e+03, 3.374358999999999924e+03, 1.000000000000000000e+00, 1.000000000000000000e+00, 1.000000000000000000e+02
4.600000000000000000e+01, 3.772820999999999913e+03, 4.121025999999999840e+03, 4.094871999999999844e+03, 3.991282000000000153e+03, 3.391795000000000073e+03, 1.000000000000000000e+00, 1.000000000000000000e+00, 1.000000000000000000e+02
4.700000000000000000e+01, 3.789744000000000142e+03, 4.114872000000000298e+03, 4.103077000000000226e+03, 3.995896999999999935e+03, 3.411282000000000153e+03, 1.000000000000000000e+00, 1.000000000000000000e+00, 1.000000000000000000e+02
4.800000000000000000e+01, 3.800512999999999920e+03, 4.104614999999999782e+03, 4.093846000000000004e+03, 3.994358999999999924e+03, 3.424103000000000065e+03, 1.000000000000000000e+00, 1.000000000000000000e+00, 1.000000000000000000e+02
4.900000000000000000e+01, 3.817949000000000069e+03, 4.104614999999999782e+03, 4.083077000000000226e+03, 3.993846000000000004e+03, 3.440512999999999920e+03, 1.000000000000000000e+00, 1.000000000000000000e+00, 1.000000000000000000e+02
5.000000000000000000e+01, 3.840512999999999920e+03, 4.106667000000000371e+03, 4.086666999999999916e+03, 3.980512999999999920e+03, 3.458461999999999989e+03, 1.000000000000000000e+00, 1.000000000000000000e+00, 1.000000000000000000e+02
5.100000000000000000e+01, 3.849744000000000142e+03, 4.102564000000000306e+03, 4.087179000000000087e+03, 3.978461999999999989e+03, 3.464614999999999782e+03, 1.000000000000000000e+00, 1.000000000000000000e+00, 1.000000000000000000e+02
5.200000000000000000e+01, 3.850768999999999778e+03, 4.110769000000000233e+03, 4.073333000000000084e+03, 3.992820999999999913e+03, 3.470255999999999858e+03, 1.000000000000000000e+00, 1.000000000000000000e+00, 1.000000000000000000e+02
5.300000000000000000e+01, 3.871795000000000073e+03, 4.125127999999999702e+03, 4.075385000000000218e+03, 3.994358999999999924e+03, 3.489231000000000222e+03, 1.000000000000000000e+00, 1.000000000000000000e+00, 1.000000000000000000e+02
5.400000000000000000e+01, 3.898461999999999989e+03, 4.127179000000000087e+03, 4.090768999999999778e+03, 3.984614999999999782e+03, 3.507692000000000007e+03, 1.000000000000000000e+00, 1.000000000000000000e+00, 1.000000000000000000e+02
5.500000000000000000e+01, 3.914358999999999924e+03, 4.123077000000000226e+03, 4.089744000000000142e+03, 3.986153999999999996e+03, 3.531795000000000073e+03, 1.000000000000000000e+00, 1.000000000000000000e+00, 1.000000000000000000e+02
5.600000000000000000e+01, 3.932820999999999913e+03, 4.131282000000000153e+03, 4.097948999999999614e+03, 3.997436000000000149e+03, 3.562563999999999851e+03, 1.000000000000000000e+00, 1.000000000000000000e+00, 1.000000000000000000e+02
5.700000000000000000e+01, 3.952307999999999993e+03, 4.141537999999999556e+03, 4.120512999999999920e+03, 4.005128000000000156e+03, 3.577949000000000069e+03, 1.000000000000000000e+00, 1.000000000000000000e+00, 1.000000000000000000e+02
5.800000000000000000e+01, 3.964614999999999782e+03, 4.137435999999999694e+03, 4.111282000000000153e+03, 4.003077000000000226e+03, 3.589744000000000142e+03, 1.000000000000000000e+00, 1.000000000000000000e+00, 1.000000000000000000e+02
5.900000000000000000e+01, 3.974358999999999924e+03, 4.125127999999999702e+03, 4.083590000000000146e+03, 3.981538000000000011e+03, 3.605641000000000076e+03, 1.000000000000000000e+00, 1.000000000000000000e+00, 1.000000000000000000e+02
6.000000000000000000e+01, 3.984103000000000065e+03, 4.118974000000000160e+03, 4.076409999999999854e+03, 3.971795000000000073e+03, 3.610768999999999778e+03, 1.000000000000000000e+00, 1.000000000000000000e+00, 1.000000000000000000e+02
6.100000000000000000e+01, 3.994871999999999844e+03, 4.125127999999999702e+03, 4.073846000000000004e+03, 3.990255999999999858e+03, 3.611282000000000153e+03, 1.000000000000000000e+00, 1.000000000000000000e+00, 1.000000000000000000e+02
6.200000000000000000e+01, 4.002563999999999851e+03, 4.127179000000000087e+03, 4.063590000000000146e+03, 4.000000000000000000e+03, 3.621538000000000011e+03, 1.000000000000000000e+00, 1.000000000000000000e+00, 1.000000000000000000e+02
6.300000000000000000e+01, 4.005641000000000076e+03, 4.118974000000000160e+03, 4.056922999999999774e+03, 3.981025999999999840e+03, 3.629231000000000222e+03, 1.000000000000000000e+00, 1.000000000000000000e+00, 1.000000000000000000e+02
6.400000000000000000e+01, 4.017436000000000149e+03, 4.116922999999999774e+03, 4.061538000000000011e+03, 3.965128000000000156e+03, 3.635896999999999935e+03, 1.000000000000000000e+00, 1.000000000000000000e+00, 1.000000000000000000e+02
6.500000000000000000e+01, 4.037949000000000069e+03, 4.125127999999999702e+03, 4.069744000000000142e+03, 3.973846000000000004e+03, 3.655896999999999935e+03, 1.000000000000000000e+00, 1.000000000000000000e+00, 1.000000000000000000e+02
6.600000000000000000e+01, 4.053846000000000004e+03, 4.135385000000000218e+03, 4.075385000000000218e+03, 3.997949000000000069e+03, 3.681538000000000011e+03, 1.000000000000000000e+00, 1.000000000000000000e+00, 1.000000000000000000e+02
6.700000000000000000e+01, 4.064103000000000065e+03, 4.133332999999999629e+03, 4.076922999999999774e+03, 4.008717999999999847e+03, 3.699487000000000080e+03, 1.000000000000000000e+00, 1.000000000000000000e+00, 1.000000000000000000e+02
6.800000000000000000e+01, 4.077949000000000069e+03, 4.121025999999999840e+03, 4.078974000000000160e+03, 3.993846000000000004e+03, 3.713333000000000084e+03, 1.000000000000000000e+00, 1.000000000000000000e+00, 1.000000000000000000e+02
6.900000000000000000e+01, 4.089231000000000222e+03, 4.118974000000000160e+03, 4.083077000000000226e+03, 3.991282000000000153e+03, 3.726666999999999916e+03, 1.000000000000000000e+00, 1.000000000000000000e+00, 1.000000000000000000e+02
7.000000000000000000e+01, 4.100000000000000000e+03, 4.131282000000000153e+03, 4.087692000000000007e+03, 4.012820999999999913e+03, 3.748717999999999847e+03, 1.000000000000000000e+00, 1.000000000000000000e+00, 1.000000000000000000e+02
7.100000000000000000e+01, 4.123590000000000146e+03, 4.135385000000000218e+03, 4.093846000000000004e+03, 4.010255999999999858e+03, 3.776922999999999774e+03, 1.000000000000000000e+00, 1.000000000000000000e+00, 1.000000000000000000e+02
7.200000000000000000e+01, 4.144614999999999782e+03, 4.133332999999999629e+03, 4.091282000000000153e+03, 3.993333000000000084e+03, 3.793333000000000084e+03, 1.000000000000000000e+00, 1.000000000000000000e+00, 1.000000000000000000e+02
7.300000000000000000e+01, 4.151795000000000073e+03, 4.135385000000000218e+03, 4.076409999999999854e+03, 3.991282000000000153e+03, 3.802050999999999931e+03, 1.000000000000000000e+00, 1.000000000000000000e+00, 1.000000000000000000e+02
7.400000000000000000e+01, 4.166154000000000451e+03, 4.137435999999999694e+03, 4.074358999999999924e+03, 3.989231000000000222e+03, 3.818461999999999989e+03, 1.000000000000000000e+00, 1.000000000000000000e+00, 1.000000000000000000e+02
7.500000000000000000e+01, 4.196409999999999854e+03, 4.143590000000000146e+03, 4.087179000000000087e+03, 3.988717999999999847e+03, 3.844614999999999782e+03, 1.000000000000000000e+00, 1.000000000000000000e+00, 1.000000000000000000e+02
7.600000000000000000e+01, 4.217948999999999614e+03, 4.145640999999999622e+03, 4.087179000000000087e+03, 3.997949000000000069e+03, 3.861025999999999840e+03, 1.000000000000000000e+00, 1.000000000000000000e+00, 1.000000000000000000e+02
7.700000000000000000e+01, 4.228717999999999847e+03, 4.143590000000000146e+03, 4.076922999999999774e+03, 4.005128000000000156e+03, 3.868204999999999927e+03, 1.000000000000000000e+00, 1.000000000000000000e+00, 1.000000000000000000e+02
7.800000000000000000e+01, 4.253332999999999629e+03, 4.149743999999999687e+03, 4.082050999999999931e+03, 4.003590000000000146e+03, 3.896922999999999774e+03, 1.000000000000000000e+00, 1.000000000000000000e+00, 1.000000000000000000e+02
7.900000000000000000e+01, 4.276922999999999774e+03, 4.151795000000000073e+03, 4.086666999999999916e+03, 4.000000000000000000e+03, 3.932307999999999993e+03, 1.000000000000000000e+00, 1.000000000000000000e+00, 1.000000000000000000e+02
8.000000000000000000e+01, 4.284614999999999782e+03, 4.143590000000000146e+03, 4.071795000000000073e+03, 3.996409999999999854e+03, 3.938974000000000160e+03, 1.000000000000000000e+00, 1.000000000000000000e+00, 1.000000000000000000e+02
8.100000000000000000e+01, 4.303077000000000226e+03, 4.149743999999999687e+03, 4.067692000000000007e+03, 3.997949000000000069e+03, 3.946153999999999996e+03, 1.000000000000000000e+00, 1.000000000000000000e+00, 1.000000000000000000e+02
8.200000000000000000e+01, 4.334872000000000298e+03, 4.162051000000000386e+03, 4.078974000000000160e+03, 4.006153999999999996e+03, 3.973846000000000004e+03, 1.000000000000000000e+00, 1.000000000000000000e+00, 1.000000000000000000e+02
8.300000000000000000e+01, 4.346667000000000371e+03, 4.151795000000000073e+03, 4.065641000000000076e+03, 3.998974000000000160e+03, 3.986666999999999916e+03, 1.000000000000000000e+00, 1.000000000000000000e+00, 1.000000000000000000e+02
8.400000000000000000e+01, 4.345640999999999622e+03, 4.137435999999999694e+03, 4.044103000000000065e+03, 3.987179000000000087e+03, 3.983590000000000146e+03, 1.000000000000000000e+00, 1.000000000000000000e+00, 1.000000000000000000e+02
8.500000000000000000e+01, 4.365640999999999622e+03, 4.149743999999999687e+03, 4.058974000000000160e+03, 3.997436000000000149e+03, 4.006153999999999996e+03, 1.000000000000000000e+00, 1.000000000000000000e+00, 1.000000000000000000e+02
8.600000000000000000e+01, 4.388204999999999927e+03, 4.160000000000000000e+03, 4.079487000000000080e+03, 4.006153999999999996e+03, 4.036922999999999774e+03, 1.000000000000000000e+00, 1.000000000000000000e+00, 1.000000000000000000e+02
8.700000000000000000e+01, 4.383077000000000226e+03, 4.143590000000000146e+03, 4.069744000000000142e+03, 3.985641000000000076e+03, 4.042050999999999931e+03, 1.000000000000000000e+00, 1.000000000000000000e+00, 1.000000000000000000e+02
8.800000000000000000e+01, 4.390256000000000313e+03, 4.137435999999999694e+03, 4.065128000000000156e+03, 3.981538000000000011e+03, 4.054358999999999924e+03, 1.000000000000000000e+00, 1.000000000000000000e+00, 1.000000000000000000e+02
8.900000000000000000e+01, 4.426154000000000451e+03, 4.153845999999999549e+03, 4.084103000000000065e+03, 4.016409999999999854e+03, 4.091282000000000153e+03, 1.000000000000000000e+00, 1.000000000000000000e+00, 1.000000000000000000e+02
9.000000000000000000e+01, 4.446154000000000451e+03, 4.153845999999999549e+03, 4.093333000000000084e+03, 4.031282000000000153e+03, 4.113845999999999549e+03, 1.000000000000000000e+00, 1.000000000000000000e+00, 1.000000000000000000e+02
9.100000000000000000e+01, 4.451795000000000073e+03, 4.135385000000000218e+03, 4.096922999999999774e+03, 4.025128000000000156e+03, 4.128717999999999847e+03, 1.000000000000000000e+00, 1.000000000000000000e+00, 1.000000000000000000e+02
9.200000000000000000e+01, 4.472307999999999993e+03, 4.131282000000000153e+03, 4.096409999999999854e+03, 4.033333000000000084e+03, 4.154359000000000378e+03, 1.000000000000000000e+00, 1.000000000000000000e+00, 1.000000000000000000e+02
9.300000000000000000e+01, 4.489743999999999687e+03, 4.147692000000000007e+03, 4.086153999999999996e+03, 4.033333000000000084e+03, 4.170256000000000313e+03, 1.000000000000000000e+00, 1.000000000000000000e+00, 1.000000000000000000e+02
9.400000000000000000e+01, 4.493332999999999629e+03, 4.157948999999999614e+03, 4.088204999999999927e+03, 4.023590000000000146e+03, 4.169230999999999767e+03, 1.000000000000000000e+00, 1.000000000000000000e+00, 1.000000000000000000e+02
9.500000000000000000e+01, 4.494359000000000378e+03, 4.155896999999999935e+03, 4.093846000000000004e+03, 4.021538000000000011e+03, 4.162564000000000306e+03, 1.000000000000000000e+00, 1.000000000000000000e+00, 1.000000000000000000e+02
9.600000000000000000e+01, 4.495385000000000218e+03, 4.153845999999999549e+03, 4.074358999999999924e+03, 4.009744000000000142e+03, 4.161025999999999840e+03, 1.000000000000000000e+00, 1.000000000000000000e+00, 1.000000000000000000e+02
9.700000000000000000e+01, 4.505640999999999622e+03, 4.151795000000000073e+03, 4.051795000000000073e+03, 3.991282000000000153e+03, 4.180000000000000000e+03, 1.000000000000000000e+00, 1.000000000000000000e+00, 1.000000000000000000e+02
9.800000000000000000e+01, 4.537435999999999694e+03, 4.157948999999999614e+03, 4.046153999999999996e+03, 3.993846000000000004e+03, 4.210769000000000233e+03, 1.000000000000000000e+00, 1.000000000000000000e+00, 1.000000000000000000e+02
9.900000000000000000e+01, 4.575896999999999935e+03, 4.168204999999999927e+03, 4.050255999999999858e+03, 4.002563999999999851e+03, 4.234872000000000298e+03, 1.000000000000000000e+00, 1.000000000000000000e+00, 1.000000000000000000e+02
1.000000000000000000e+02, 4.591795000000000073e+03, 4.168204999999999927e+03, 4.064103000000000065e+03, 3.994358999999999924e+03, 4.248204999999999927e+03, 1.000000000000000000e+00, 1.000000000000000000e+00, 1.000000000000000000e+02
1.010000000000000000e+02, 4.589230999999999767e+03, 4.168204999999999927e+03, 4.074871999999999844e+03, 3.996922999999999774e+03, 4.263590000000000146e+03, 1.000000000000000000e+00, 1.000000000000000000e+00, 1.000000000000000000e+02
1.020000000000000000e+02, 4.592307999999999993e+03, 4.174359000000000378e+03, 4.064614999999999782e+03, 4.013333000000000084e+03, 4.281025999999999840e+03, 1.000000000000000000e+00, 1.000000000000000000e+00, 1.000000000000000000e+02
1.030000000000000000e+02, 4.610769000000000233e+03, 4.170256000000000313e+03, 4.060000000000000000e+03, 4.020512999999999920e+03, 4.297435999999999694e+03, 1.000000000000000000e+00, 1.000000000000000000e+00, 1.000000000000000000e+02
1.040000000000000000e+02, 4.636409999999999854e+03, 4.164103000000000065e+03, 4.071795000000000073e+03, 4.027179000000000087e+03, 4.320512999999999920e+03, 1.000000000000000000e+00, 1.000000000000000000e+00, 1.000000000000000000e+02
1.050000000000000000e+02, 4.651795000000000073e+03, 4.168204999999999927e+03, 4.078974000000000160e+03, 4.031282000000000153e+03, 4.344614999999999782e+03, 1.000000000000000000e+00, 1.000000000000000000e+00, 1.000000000000000000e+02
1.060000000000000000e+02, 4.651795000000000073e+03, 4.170256000000000313e+03, 4.072307999999999993e+03, 4.012820999999999913e+03, 4.351282000000000153e+03, 1.000000000000000000e+00, 1.000000000000000000e+00, 1.000000000000000000e+02
1.070000000000000000e+02, 4.654359000000000378e+03, 4.174359000000000378e+03, 4.067179000000000087e+03, 4.001025999999999840e+03, 4.351795000000000073e+03, 1.000000000000000000e+00, 1.000000000000000000e+00, 1.000000000000000000e+02
1.080000000000000000e+02, 4.680000000000000000e+03, 4.184614999999999782e+03, 4.074358999999999924e+03, 4.018974000000000160e+03, 4.377948999999999614e+03, 1.000000000000000000e+00, 1.000000000000000000e+00, 1.000000000000000000e+02
1.090000000000000000e+02, 4.710256000000000313e+03, 4.194872000000000298e+03, 4.085641000000000076e+03, 4.031795000000000073e+03, 4.418974000000000160e+03, 1.000000000000000000e+00, 1.000000000000000000e+00, 1.000000000000000000e+02
1.100000000000000000e+02, 4.721025999999999840e+03, 4.194872000000000298e+03, 4.088204999999999927e+03, 4.020000000000000000e+03, 4.436409999999999854e+03, 1.000000000000000000e+00, 1.000000000000000000e+00, 1.000000000000000000e+02
1.110000000000000000e+02, 4.730769000000000233e+03, 4.190769000000000233e+03, 4.085641000000000076e+03, 4.017949000000000069e+03, 4.446667000000000371e+03, 1.000000000000000000e+00, 1.000000000000000000e+00, 1.000000000000000000e+02
1.120000000000000000e+02, 4.750769000000000233e+03, 4.194872000000000298e+03, 4.087179000000000087e+03, 4.031282000000000153e+03, 4.468204999999999927e+03, 1.000000000000000000e+00, 1.000000000000000000e+00, 1.000000000000000000e+02
1.130000000000000000e+02, 4.765127999999999702e+03, 4.205127999999999702e+03, 4.096922999999999774e+03, 4.034871999999999844e+03, 4.486154000000000451e+03, 1.000000000000000000e+00, 1.000000000000000000e+00, 1.000000000000000000e+02
1.140000000000000000e+02, 4.774359000000000378e+03, 4.211282000000000153e+03, 4.102564000000000306e+03, 4.032307999999999993e+03, 4.501537999999999556e+03, 1.000000000000000000e+00, 1.000000000000000000e+00, 1.000000000000000000e+02
1.150000000000000000e+02, 4.778974000000000160e+03, 4.211282000000000153e+03, 4.093333000000000084e+03, 4.033846000000000004e+03, 4.507179000000000087e+03, 1.000000000000000000e+00, 1.000000000000000000e+00, 1.000000000000000000e+02
1.160000000000000000e+02, 4.781537999999999556e+03, 4.211282000000000153e+03, 4.082050999999999931e+03, 4.032307999999999993e+03, 4.510769000000000233e+03, 1.000000000000000000e+00, 1.000000000000000000e+00, 1.000000000000000000e+02
1.170000000000000000e+02, 4.788717999999999847e+03, 4.213332999999999629e+03, 4.072307999999999993e+03, 4.024614999999999782e+03, 4.521025999999999840e+03, 1.000000000000000000e+00, 1.000000000000000000e+00, 1.000000000000000000e+02
1.180000000000000000e+02, 4.803077000000000226e+03, 4.209230999999999767e+03, 4.062050999999999931e+03, 4.019487000000000080e+03, 4.533845999999999549e+03, 1.000000000000000000e+00, 1.000000000000000000e+00, 1.000000000000000000e+02
1.190000000000000000e+02, 4.823590000000000146e+03, 4.207179000000000087e+03, 4.073846000000000004e+03, 4.023590000000000146e+03, 4.551795000000000073e+03, 1.000000000000000000e+00, 1.000000000000000000e+00, 1.000000000000000000e+02
1.200000000000000000e+02, 4.838462000000000444e+03, 4.225640999999999622e+03, 4.090768999999999778e+03, 4.031795000000000073e+03, 4.570256000000000313e+03, 1.000000000000000000e+00, 1.000000000000000000e+00, 1.000000000000000000e+02
1.210000000000000000e+02, 4.850256000000000313e+03, 4.240000000000000000e+03, 4.092820999999999913e+03, 4.047179000000000087e+03, 4.585640999999999622e+03, 1.000000000000000000e+00, 1.000000000000000000e+00, 1.000000000000000000e+02
1.220000000000000000e+02, 4.855385000000000218e+03, 4.225640999999999622e+03, 4.093333000000000084e+03, 4.047179000000000087e+03, 4.594359000000000378e+03, 1.000000000000000000e+00, 1.000000000000000000e+00, 1.000000000000000000e+02
1.230000000000000000e+02, 4.856922999999999774e+03, 4.221537999999999556e+03, 4.092820999999999913e+03, 4.031282000000000153e+03, 4.604103000000000065e+03, 1.000000000000000000e+00, 1.000000000000000000e+00, 1.000000000000000000e+02
1.240000000000000000e+02, 4.873332999999999629e+03, 4.233845999999999549e+03, 4.088717999999999847e+03, 4.034358999999999924e+03, 4.632307999999999993e+03, 1.000000000000000000e+00, 1.000000000000000000e+00, 1.000000000000000000e+02
1.250000000000000000e+02, 4.890769000000000233e+03, 4.235896999999999935e+03, 4.089744000000000142e+03, 4.038974000000000160e+03, 4.653845999999999549e+03, 1.000000000000000000e+00, 1.000000000000000000e+00, 1.000000000000000000e+02
1.260000000000000000e+02, 4.893845999999999549e+03, 4.229743999999999687e+03, 4.090255999999999858e+03, 4.033846000000000004e+03, 4.656409999999999854e+03, 1.000000000000000000e+00, 1.000000000000000000e+00, 1.000000000000000000e+02
1.270000000000000000e+02, 4.890769000000000233e+03, 4.225640999999999622e+03, 4.077436000000000149e+03, 4.030768999999999778e+03, 4.655896999999999935e+03, 1.000000000000000000e+00, 1.000000000000000000e+00, 1.000000000000000000e+02
0.000000000000000000e+00, 4.888204999999999927e+03, 4.217435999999999694e+03, 4.060512999999999920e+03, 4.025128000000000156e+03, 4.662051000000000386e+03, 1.000000000000000000e+00, 1.000000000000000000e+00, 1.000000000000000000e+02
1.000000000000000000e+00, 4.893845999999999549e+03, 4.213332999999999629e+03, 4.050255999999999858e+03, 4.016409999999999854e+03, 4.677435999999999694e+03, 1.000000000000000000e+00, 1.000000000000000000e+00, 1.000000000000000000e+02
2.000000000000000000e+00, 4.910256000000000313e+03, 4.221537999999999556e+03, 4.048717999999999847e+03, 4.027179000000000087e+03, 4.696409999999999854e+03, 1.000000000000000000e+00, 1.000000000000000000e+00, 1.000000000000000000e+02
3.000000000000000000e+00, 4.923590000000000146e+03, 4.227692000000000007e+03, 4.060512999999999920e+03, 4.043590000000000146e+03, 4.708717999999999847e+03, 1.000000000000000000e+00, 1.000000000000000000e+00, 1.000000000000000000e+02
4.000000000000000000e+00, 4.931282000000000153e+03, 4.231795000000000073e+03, 4.088717999999999847e+03, 4.040512999999999920e+03, 4.722564000000000306e+03, 1.000000000000000000e+00, 1.000000000000000000e+00, 1.000000000000000000e+02
5.000000000000000000e+00, 4.935896999999999935e+03, 4.231795000000000073e+03, 4.116409999999999854e+03, 4.043590000000000146e+03, 4.743590000000000146e+03, 1.000000000000000000e+00, 1.000000000000000000e+00, 1.000000000000000000e+02
6.000000000000000000e+00, 4.932820999999999913e+03, 4.229743999999999687e+03, 4.117435999999999694e+03, 4.054871999999999844e+03, 4.755896999999999935e+03, 1.000000000000000000e+00, 1.000000000000000000e+00, 1.000000000000000000e+02
7.000000000000000000e+00, 4.933845999999999549e+03, 4.240000000000000000e+03, 4.109230999999999767e+03, 4.052307999999999993e+03, 4.759487000000000080e+03, 1.000000000000000000e+00, 1.000000000000000000e+00, 1.000000000000000000e+02
8.000000000000000000e+00, 4.950769000000000233e+03, 4.254359000000000378e+03, 4.115896999999999935e+03, 4.051282000000000153e+03, 4.776922999999999774e+03, 1.000000000000000000e+00, 1.000000000000000000e+00, 1.000000000000000000e+02
9.000000000000000000e+00, 4.967692000000000007e+03, 4.252307999999999993e+03, 4.116409999999999854e+03, 4.062563999999999851e+03, 4.795385000000000218e+03, 1.000000000000000000e+00, 1.000000000000000000e+00, 1.000000000000000000e+02
1.000000000000000000e+01, 4.961537999999999556e+03, 4.240000000000000000e+03, 4.095896999999999935e+03, 4.055385000000000218e+03, 4.793332999999999629e+03, 1.000000000000000000e+00, 1.000000000000000000e+00, 1.000000000000000000e+02
1.100000000000000000e+01, 4.945640999999999622e+03, 4.235896999999999935e+03, 4.076409999999999854e+03, 4.032820999999999913e+03, 4.784103000000000065e+03, 1.000000000000000000e+00, 1.000000000000000000e+00, 1.000000000000000000e+02
1.200000000000000000e+01, 4.948717999999999847e+03, 4.240000000000000000e+03, 4.078461999999999989e+03, 4.030768999999999778e+03, 4.785640999999999622e+03, 1.000000000000000000e+00, 1.000000000000000000e+00, 1.000000000000000000e+02
1.300000000000000000e+01, 4.958974000000000160e+03, 4.240000000000000000e+03, 4.075385000000000218e+03, 4.030768999999999778e+03, 4.797948999999999614e+03, 1.000000000000000000e+00, 1.000000000000000000e+00, 1.000000000000000000e+02
1.400000000000000000e+01, 4.960000000000000000e+03, 4.229743999999999687e+03, 4.056409999999999854e+03, 4.017949000000000069e+03, 4.811282000000000153e+03, 1.000000000000000000e+00, 1.000000000000000000e+00, 1.000000000000000000e+02
1.500000000000000000e+01, 4.974359000000000378e+03, 4.229743999999999687e+03, 4.055896999999999935e+03, 4.027692000000000007e+03, 4.829230999999999767e+03, 1.000000000000000000e+00, 1.000000000000000000e+00, 1.000000000000000000e+02
1.600000000000000000e+01, 4.992820999999999913e+03, 4.246154000000000451e+03, 4.070255999999999858e+03, 4.044614999999999782e+03, 4.849230999999999767e+03, 1.000000000000000000e+00, 1.000000000000000000e+00, 1.000000000000000000e+02
1.700000000000000000e+01, 4.991282000000000153e+03, 4.246154000000000451e+03, 4.078974000000000160e+03, 4.032307999999999993e+03, 4.854872000000000298e+03, 1.000000000000000000e+00, 1.000000000000000000e+00, 1.000000000000000000e+02
1.800000000000000000e+01, 4.991795000000000073e+03, 4.240000000000000000e+03, 4.089231000000000222e+03, 4.027692000000000007e+03, 4.853845999999999549e+03, 1.000000000000000000e+00, 1.000000000000000000e+00, 1.000000000000000000e+02
1.900000000000000000e+01, 5.003590000000000146e+03, 4.258462000000000444e+03, 4.106667000000000371e+03, 4.046666999999999916e+03, 4.865640999999999622e+03, 1.000000000000000000e+00, 1.000000000000000000e+00, 1.000000000000000000e+02
2.000000000000000000e+01, 5.013845999999999549e+03, 4.266667000000000371e+03, 4.116922999999999774e+03, 4.050255999999999858e+03, 4.889230999999999767e+03, 1.000000000000000000e+00, 1.000000000000000000e+00, 1.000000000000000000e+02
2.100000000000000000e+01, 5.016409999999999854e+03, 4.250256000000000313e+03, 4.110256000000000313e+03, 4.039487000000000080e+03, 4.904103000000000065e+03, 1.000000000000000000e+00, 1.000000000000000000e+00, 1.000000000000000000e+02
2.200000000000000000e+01, 5.018462000000000444e+03, 4.250256000000000313e+03, 4.101537999999999556e+03, 4.045641000000000076e+03, 4.910769000000000233e+03, 1.000000000000000000e+00, 1.000000000000000000e+00, 1.000000000000000000e+02
2.300000000000000000e+01, 5.027692000000000007e+03, 4.264614999999999782e+03, 4.105127999999999702e+03, 4.058461999999999989e+03, 4.930256000000000313e+03, 1.000000000000000000e+00, 1.000000000000000000e+00, 1.000000000000000000e+02
2.400000000000000000e+01, 5.036409999999999854e+03, 4.254359000000000378e+03, 4.106667000000000371e+03, 4.057436000000000149e+03, 4.953332999999999629e+03, 1.000000000000000000e+00, 1.000000000000000000e+00, 1.000000000000000000e+02
2.500000000000000000e+01, 5.033332999999999629e+03, 4.244103000000000065e+03, 4.092307999999999993e+03, 4.051282000000000153e+03, 4.955385000000000218e+03, 1.000000000000000000e+00, 1.000000000000000000e+00, 1.000000000000000000e+02
2.600000000000000000e+01, 5.036922999999999774e+03, 4.254359000000000378e+03, 4.092307999999999993e+03, 4.057949000000000069e+03, 4.956922999999999774e+03, 1.000000000000000000e+00, 1.000000000000000000e+00, 1.000000000000000000e+02
2.700000000000000000e+01, 5.048204999999999927e+03, 4.260512999999999920e+03, 4.109743999999999687e+03, 4.073333000000000084e+03, 4.974359000000000378e+03, 1.000000000000000000e+00, 1.000000000000000000e+00, 1.000000000000000000e+02
2.800000000000000000e+01, 5.038462000000000444e+03, 4.258462000000000444e+03, 4.109230999999999767e+03, 4.075385000000000218e+03, 4.978462000000000444e+03, 1.000000000000000000e+00, 1.000000000000000000e+00, 1.000000000000000000e+02
2.900000000000000000e+01, 5.029230999999999767e+03, 4.260512999999999920e+03, 4.103077000000000226e+03, 4.067692000000000007e+03, 4.973332999999999629e+03, 1.000000000000000000e+00, 1.000000000000000000e+00, 1.000000000000000000e+02
3.000000000000000000e+01, 5.038974000000000160e+03, 4.262564000000000306e+03, 4.114359000000000378e+03, 4.062050999999999931e+03, 4.983077000000000226e+03, 1.000000000000000000e+00, 1.000000000000000000e+00, 1.000000000000000000e+02
3.100000000000000000e+01, 5.037435999999999694e+03, 4.254359000000000378e+03, 4.118462000000000444e+03, 4.057949000000000069e+03, 4.989230999999999767e+03, 1.000000000000000000e+00, 1.000000000000000000e+00, 1.000000000000000000e+02
3.200000000000000000e+01, 5.025127999999999702e+03, 4.244103000000000065e+03, 4.108204999999999927e+03, 4.057436000000000149e+03, 4.984614999999999782e+03, 1.000000000000000000e+00, 1.000000000000000000e+00, 1.000000000000000000e+02
3.300000000000000000e+01, 5.030769000000000233e+03, 4.252307999999999993e+03, 4.113332999999999629e+03, 4.060512999999999920e+03, 4.986667000000000371e+03, 1.000000000000000000e+00, 1.000000000000000000e+00, 1.000000000000000000e+02
3.400000000000000000e+01, 5.053845999999999549e+03, 4.264614999999999782e+03, 4.130769000000000233e+03, 4.067692000000000007e+03, 5.005640999999999622e+03, 1.000000000000000000e+00, 1.000000000000000000e+00, 1.000000000000000000e+02
3.500000000000000000e+01, 5.069230999999999767e+03, 4.266667000000000371e+03, 4.121537999999999556e+03, 4.066666999999999916e+03, 5.025640999999999622e+03, 1.000000000000000000e+00, 1.000000000000000000e+00, 1.000000000000000000e+02
3.600000000000000000e+01, 5.067692000000000007e+03, 4.264614999999999782e+03, 4.097435999999999694e+03, 4.055385000000000218e+03, 5.030256000000000313e+03, 1.000000000000000000e+00, 1.000000000000000000e+00, 1.000000000000000000e+02
3.700000000000000000e+01, 5.062564000000000306e+03, 4.262564000000000306e+03, 4.097948999999999614e+03, 4.056922999999999774e+03, 5.032820999999999913e+03, 1.000000000000000000e+00, 1.000000000000000000e+00, 1.000000000000000000e+02
3.800000000000000000e+01, 5.067179000000000087e+03, 4.262564000000000306e+03, 4.107692000000000007e+03, 4.067692000000000007e+03, 5.041537999999999556e+03, 1.000000000000000000e+00, 1.000000000000000000e+00, 1.000000000000000000e+02
3.900000000000000000e+01, 5.073332999999999629e+03, 4.266667000000000371e+03, 4.099487000000000080e+03, 4.058461999999999989e+03, 5.052820999999999913e+03, 1.000000000000000000e+00, 1.000000000000000000e+00, 1.000000000000000000e+02
4.000000000000000000e+01, 5.069230999999999767e+03, 4.260512999999999920e+03, 4.086153999999999996e+03, 4.044103000000000065e+03, 5.057435999999999694e+03, 1.000000000000000000e+00, 1.000000000000000000e+00, 1.000000000000000000e+02
4.100000000000000000e+01, 5.069230999999999767e+03, 4.258462000000000444e+03, 4.090768999999999778e+03, 4.050768999999999778e+03, 5.061537999999999556e+03, 1.000000000000000000e+00, 1.000000000000000000e+00, 1.000000000000000000e+02
4.200000000000000000e+01, 5.081025999999999840e+03, 4.272820999999999913e+03, 4.105127999999999702e+03, 4.065128000000000156e+03, 5.071282000000000153e+03, 1.000000000000000000e+00, 1.000000000000000000e+00, 1.000000000000000000e+02
4.300000000000000000e+01, 5.081025999999999840e+03, 4.281025999999999840e+03, 4.110769000000000233e+03, 4.069231000000000222e+03, 5.074359000000000378e+03, 1.000000000000000000e+00, 1.000000000000000000e+00, 1.000000000000000000e+02
4.400000000000000000e+01, 5.072820999999999913e+03, 4.278974000000000160e+03, 4.119487000000000080e+03, 4.079487000000000080e+03, 5.077435999999999694e+03, 1.000000000000000000e+00, 1.000000000000000000e+00, 1.000000000000000000e+02
4.500000000000000000e+01, 5.065127999999999702e+03, 4.276922999999999774e+03, 4.125127999999999702e+03, 4.084103000000000065e+03, 5.083077000000000226e+03, 1.000000000000000000e+00, 1.000000000000000000e+00, 1.000000000000000000e+02
4.600000000000000000e+01, 5.055385000000000218e+03, 4.272820999999999913e+03, 4.113332999999999629e+03, 4.072307999999999993e+03, 5.081537999999999556e+03, 1.000000000000000000e+00, 1.000000000000000000e+00, 1.000000000000000000e+02
4.700000000000000000e+01, 5.054359000000000378e+03, 4.268717999999999847e+03, 4.105640999999999622e+03, 4.069744000000000142e+03, 5.075896999999999935e+03, 1.000000000000000000e+00, 1.000000000000000000e+00, 1.000000000000000000e+02
4.800000000000000000e+01, 5.060512999999999920e+03, 4.268717999999999847e+03, 4.117435999999999694e+03, 4.076922999999999774e+03, 5.080512999999999920e+03, 1.000000000000000000e+00, 1.000000000000000000e+00, 1.000000000000000000e+02
4.900000000000000000e+01, 5.063077000000000226e+03, 4.264614999999999782e+03, 4.125640999999999622e+03, 4.078461999999999989e+03, 5.094359000000000378e+03, 1.000000000000000000e+00, 1.000000000000000000e+00, 1.000000000000000000e+02
5.000000000000000000e+01, 5.071282000000000153e+03, 4.264614999999999782e+03, 4.121025999999999840e+03, 4.073846000000000004e+03, 5.099487000000000080e+03, 0.000000000000000000e+00, 0.000000000000000000e+00, 1.000000000000000000e+02
5.100000000000000000e+01, 5.083077000000000226e+03, 4.278974000000000160e+03, 4.120000000000000000e+03, 4.074358999999999924e+03, 5.105640999999999622e+03, 0.000000000000000000e+00, 0.000000000000000000e+00, 1.000000000000000000e+02
5.200000000000000000e+01, 5.085127999999999702e+03, 4.297435999999999694e+03, 4.122564000000000306e+03, 4.080512999999999920e+03, 5.115385000000000218e+03, 0.000000000000000000e+00, 0.000000000000000000e+00, 1.000000000000000000e+02
5.300000000000000000e+01, 5.079487000000000080e+03, 4.295385000000000218e+03, 4.121537999999999556e+03, 4.080000000000000000e+03, 5.115896999999999935e+03, 0.000000000000000000e+00, 0.000000000000000000e+00, 1.000000000000000000e+02
5.400000000000000000e+01, 5.078462000000000444e+03, 4.291282000000000153e+03, 4.123077000000000226e+03, 4.076922999999999774e+03, 5.116922999999999774e+03, 0.000000000000000000e+00, 0.000000000000000000e+00, 1.000000000000000000e+02
5.500000000000000000e+01, 5.083077000000000226e+03, 4.299487000000000080e+03, 4.118974000000000160e+03, 4.072820999999999913e+03, 5.120000000000000000e+03, 0.000000000000000000e+00, 0.000000000000000000e+00, 1.000000000000000000e+02
5.600000000000000000e+01, 5.084103000000000065e+03, 4.297435999999999694e+03, 4.108204999999999927e+03, 4.067692000000000007e+03, 5.112307999999999993e+03, 0.000000000000000000e+00, 0.000000000000000000e+00, 1.000000000000000000e+02
5.700000000000000000e+01, 5.079487000000000080e+03, 4.281025999999999840e+03, 4.110769000000000233e+03, 4.062563999999999851e+03, 5.105640999999999622e+03, 0.000000000000000000e+00, 0.000000000000000000e+00, 1.000000000000000000e+02
5.800000000000000000e+01, 5.074872000000000298e+03, 4.285127999999999702e+03, 4.121025999999999840e+03, 4.070255999999999858e+03, 5.104103000000000065e+03, 0.000000000000000000e+00, 0.000000000000000000e+00, 1.000000000000000000e+02
5.900000000000000000e+01, 5.073845999999999549e+03, 4.303590000000000146e+03, 4.115896999999999935e+03, 4.077949000000000069e+03, 5.104614999999999782e+03, 0.000000000000000000e+00, 0.000000000000000000e+00, 1.000000000000000000e+02
6.000000000000000000e+01, 5.078974000000000160e+03, 4.307692000000000007e+03, 4.108717999999999847e+03, 4.073333000000000084e+03, 5.112820999999999913e+03, 0.000000000000000000e+00, 0.000000000000000000e+00, 1.000000000000000000e+02
6.100000000000000000e+01, 5.087179000000000087e+03, 4.303590000000000146e+03, 4.111282000000000153e+03, 4.069231000000000222e+03, 5.117948999999999614e+03, 0.000000000000000000e+00, 0.000000000000000000e+00, 1.000000000000000000e+02
6.200000000000000000e+01, 5.087692000000000007e+03, 4.311795000000000073e+03, 4.112820999999999913e+03, 4.078974000000000160e+03, 5.124614999999999782e+03, 0.000000000000000000e+00, 0.000000000000000000e+00, 1.000000000000000000e+02
6.300000000000000000e+01, 5.077948999999999614e+03, 4.311795000000000073e+03, 4.115385000000000218e+03, 4.090255999999999858e+03, 5.140000000000000000e+03, 0.000000000000000000e+00, 0.000000000000000000e+00, 1.000000000000000000e+02
6.400000000000000000e+01, 5.066154000000000451e+03, 4.299487000000000080e+03, 4.114359000000000378e+03, 4.081538000000000011e+03, 5.135385000000000218e+03, 0.000000000000000000e+00, 0.000000000000000000e+00, 1.000000000000000000e+02
6.500000000000000000e+01, 5.061537999999999556e+03, 4.299487000000000080e+03, 4.114359000000000378e+03, 4.075385000000000218e+03, 5.121025999999999840e+03, 0.000000000000000000e+00, 0.000000000000000000e+00, 1.000000000000000000e+02
6.600000000000000000e+01, 5.064103000000000065e+03, 4.309743999999999687e+03, 4.128717999999999847e+03, 4.083077000000000226e+03, 5.134359000000000378e+03, 0.000000000000000000e+00, 0.000000000000000000e+00, 1.000000000000000000e+02
6.700000000000000000e+01, 5.069230999999999767e+03, 4.324103000000000065e+03, 4.144103000000000065e+03, 4.084614999999999782e+03, 5.152307999999999993e+03, 0.000000000000000000e+00, 0.000000000000000000e+00, 1.000000000000000000e+02
6.800000000000000000e+01, 5.065640999999999622e+03, 4.322051000000000386e+03, 4.140512999999999920e+03, 4.084103000000000065e+03, 5.145640999999999622e+03, 0.000000000000000000e+00, 0.000000000000000000e+00, 1.000000000000000000e+02
6.900000000000000000e+01, 5.056409999999999854e+03, 4.303590000000000146e+03, 4.120512999999999920e+03, 4.088204999999999927e+03, 5.143590000000000146e+03, 0.000000000000000000e+00, 0.000000000000000000e+00, 1.000000000000000000e+02
7.000000000000000000e+01, 5.048204999999999927e+03, 4.297435999999999694e+03, 4.106667000000000371e+03, 4.082050999999999931e+03, 5.151795000000000073e+03, 0.000000000000000000e+00, 0.000000000000000000e+00, 1.000000000000000000e+02
7.100000000000000000e+01, 5.041537999999999556e+03, 4.301537999999999556e+03, 4.103077000000000226e+03, 4.068204999999999927e+03, 5.141537999999999556e+03, 0.000000000000000000e+00, 0.000000000000000000e+00, 1.000000000000000000e+02
7.200000000000000000e+01, 5.041537999999999556e+03, 4.293332999999999629e+03, 4.102564000000000306e+03, 4.071795000000000073e+03, 5.130256000000000313e+03, 0.000000000000000000e+00, 0.000000000000000000e+00, 1.000000000000000000e+02
7.300000000000000000e+01, 5.041025999999999840e+03, 4.287179000000000087e+03, 4.108717999999999847e+03, 4.077949000000000069e+03, 5.140000000000000000e+03, 0.000000000000000000e+00, 0.000000000000000000e+00, 1.000000000000000000e+02
7.400000000000000000e+01, 5.040512999999999920e+03, 4.301537999999999556e+03, 4.117435999999999694e+03, 4.074871999999999844e+03, 5.153332999999999629e+03, 0.000000000000000000e+00, 0.000000000000000000e+00, 1.000000000000000000e+02
7.500000000000000000e+01, 5.038462000000000444e+03, 4.317948999999999614e+03, 4.123077000000000226e+03, 4.080512999999999920e+03, 5.149743999999999687e+03, 0.000000000000000000e+00, 0.000000000000000000e+00, 1.000000000000000000e+02
7.600000000000000000e+01, 5.031282000000000153e+03, 4.320000000000000000e+03, 4.130769000000000233e+03, 4.093846000000000004e+03, 5.140000000000000000e+03, 0.000000000000000000e+00, 0.000000000000000000e+00, 1.000000000000000000e+02
7.700000000000000000e+01, 5.040512999999999920e+03, 4.322051000000000386e+03, 4.134359000000000378e+03, 4.091282000000000153e+03, 5.154359000000000378e+03, 0.000000000000000000e+00, 0.000000000000000000e+00, 1.000000000000000000e+02
7.800000000000000000e+01, 5.070256000000000313e+03, 4.326154000000000451e+03, 4.127179000000000087e+03, 4.085641000000000076e+03, 5.182564000000000306e+03, 0.000000000000000000e+00, 0.000000000000000000e+00, 1.000000000000000000e+02
7.900000000000000000e+01, 5.103590000000000146e+03, 4.340512999999999920e+03, 4.131795000000000073e+03, 4.104103000000000065e+03, 5.205127999999999702e+03, 0.000000000000000000e+00, 0.000000000000000000e+00, 1.000000000000000000e+02
8.000000000000000000e+01, 5.130769000000000233e+03, 4.350769000000000233e+03, 4.147179000000000087e+03, 4.108717999999999847e+03, 5.225127999999999702e+03, 0.000000000000000000e+00, 0.000000000000000000e+00, 1.000000000000000000e+02
8.100000000000000000e+01, 5.142564000000000306e+03, 4.342564000000000306e+03, 4.141025999999999840e+03, 4.086666999999999916e+03, 5.235896999999999935e+03, 0.000000000000000000e+00, 0.000000000000000000e+00, 1.000000000000000000e+02
8.200000000000000000e+01, 5.142051000000000386e+03, 4.336409999999999854e+03, 4.133332999999999629e+03, 4.090768999999999778e+03, 5.242564000000000306e+03, 0.000000000000000000e+00, 0.000000000000000000e+00, 1.000000000000000000e+02
8.300000000000000000e+01, 5.140000000000000000e+03, 4.342564000000000306e+03, 4.147179000000000087e+03, 4.112307999999999993e+03, 5.249230999999999767e+03, 0.000000000000000000e+00, 0.000000000000000000e+00, 1.000000000000000000e+02
8.400000000000000000e+01, 5.128717999999999847e+03, 4.344614999999999782e+03, 4.151795000000000073e+03, 4.103077000000000226e+03, 5.238462000000000444e+03, 0.000000000000000000e+00, 0.000000000000000000e+00, 1.000000000000000000e+02
8.500000000000000000e+01, 5.110256000000000313e+03, 4.338462000000000444e+03, 4.138974000000000160e+03, 4.087692000000000007e+03, 5.217435999999999694e+03, 0.000000000000000000e+00, 0.000000000000000000e+00, 1.000000000000000000e+02
8.600000000000000000e+01, 5.099487000000000080e+03, 4.340512999999999920e+03, 4.134872000000000298e+03, 4.090768999999999778e+03, 5.214359000000000378e+03, 0.000000000000000000e+00, 0.000000000000000000e+00, 1.000000000000000000e+02
8.700000000000000000e+01, 5.092820999999999913e+03, 4.340512999999999920e+03, 4.141025999999999840e+03, 4.092307999999999993e+03, 5.222051000000000386e+03, 0.000000000000000000e+00, 0.000000000000000000e+00, 1.000000000000000000e+02
8.800000000000000000e+01, 5.086154000000000451e+03, 4.332307999999999993e+03, 4.141025999999999840e+03, 4.092820999999999913e+03, 5.216409999999999854e+03, 0.000000000000000000e+00, 0.000000000000000000e+00, 1.000000000000000000e+02
8.900000000000000000e+01, 5.081025999999999840e+03, 4.332307999999999993e+03, 4.144614999999999782e+03, 4.104614999999999782e+03, 5.210769000000000233e+03, 0.000000000000000000e+00, 0.000000000000000000e+00, 1.000000000000000000e+02
9.000000000000000000e+01, 5.075896999999999935e+03, 4.330256000000000313e+03, 4.154359000000000378e+03, 4.113332999999999629e+03, 5.222564000000000306e+03, 0.000000000000000000e+00, 0.000000000000000000e+00, 1.000000000000000000e+02
9.100000000000000000e+01, 5.069230999999999767e+03, 4.328204999999999927e+03, 4.151282000000000153e+03, 4.099487000000000080e+03, 5.225127999999999702e+03, 0.000000000000000000e+00, 0.000000000000000000e+00, 1.000000000000000000e+02
9.200000000000000000e+01, 5.064103000000000065e+03, 4.330256000000000313e+03, 4.146154000000000451e+03, 4.089744000000000142e+03, 5.212307999999999993e+03, 0.000000000000000000e+00, 0.000000000000000000e+00, 1.000000000000000000e+02
9.300000000000000000e+01, 5.054872000000000298e+03, 4.336409999999999854e+03, 4.148717999999999847e+03, 4.100512999999999920e+03, 5.201537999999999556e+03, 0.000000000000000000e+00, 0.000000000000000000e+00, 1.000000000000000000e+02
9.400000000000000000e+01, 5.045127999999999702e+03, 4.328204999999999927e+03, 4.143077000000000226e+03, 4.092307999999999993e+03, 5.194359000000000378e+03, 0.000000000000000000e+00, 0.000000000000000000e+00, 1.000000000000000000e+02
9.500000000000000000e+01, 5.051282000000000153e+03, 4.324103000000000065e+03, 4.140000000000000000e+03, 4.083077000000000226e+03, 5.209230999999999767e+03, 0.000000000000000000e+00, 0.000000000000000000e+00, 1.000000000000000000e+02
9.600000000000000000e+01, 5.060000000000000000e+03, 4.330256000000000313e+03, 4.148204999999999927e+03, 4.108204999999999927e+03, 5.227692000000000007e+03, 0.000000000000000000e+00, 0.000000000000000000e+00, 1.000000000000000000e+02
9.700000000000000000e+01, 5.048204999999999927e+03, 4.332307999999999993e+03, 4.145127999999999702e+03, 4.118974000000000160e+03, 5.210256000000000313e+03, 0.000000000000000000e+00, 0.000000000000000000e+00, 1.000000000000000000e+02
9.800000000000000000e+01, 5.032820999999999913e+03, 4.334359000000000378e+03, 4.131795000000000073e+03, 4.087692000000000007e+03, 5.186667000000000371e+03, 0.000000000000000000e+00, 0.000000000000000000e+00, 1.000000000000000000e+02
9.900000000000000000e+01, 5.034872000000000298e+03, 4.338462000000000444e+03, 4.124614999999999782e+03, 4.084103000000000065e+03, 5.195385000000000218e+03, 0.000000000000000000e+00, 0.000000000000000000e+00, 1.000000000000000000e+02
1.000000000000000000e+02, 5.045640999999999622e+03, 4.338462000000000444e+03, 4.136922999999999774e+03, 4.110256000000000313e+03, 5.213845999999999549e+03, 0.000000000000000000e+00, 0.000000000000000000e+00, 1.000000000000000000e+02
1.010000000000000000e+02, 5.047179000000000087e+03, 4.338462000000000444e+03, 4.148204999999999927e+03, 4.105640999999999622e+03, 5.217948999999999614e+03, 0.000000000000000000e+00, 0.000000000000000000e+00, 1.000000000000000000e+02
1.020000000000000000e+02, 5.040000000000000000e+03, 4.334359000000000378e+03, 4.129743999999999687e+03, 4.095896999999999935e+03, 5.218462000000000444e+03, 0.000000000000000000e+00, 0.000000000000000000e+00, 1.000000000000000000e+02
1.030000000000000000e+02, 5.039487000000000080e+03, 4.328204999999999927e+03, 4.113332999999999629e+03, 4.109743999999999687e+03, 5.221025999999999840e+03, 0.000000000000000000e+00, 0.000000000000000000e+00, 1.000000000000000000e+02
1.040000000000000000e+02, 5.036922999999999774e+03, 4.332307999999999993e+03, 4.123077000000000226e+03, 4.105127999999999702e+03, 5.214872000000000298e+03, 0.000000000000000000e+00, 0.000000000000000000e+00, 1.000000000000000000e+02
1.050000000000000000e+02, 5.021025999999999840e+03, 4.336409999999999854e+03, 4.128717999999999847e+03, 4.087692000000000007e+03, 5.196922999999999774e+03, 0.000000000000000000e+00, 0.000000000000000000e+00, 1.000000000000000000e+02
1.060000000000000000e+02, 5.005640999999999622e+03, 4.328204999999999927e+03, 4.124103000000000065e+03, 4.093846000000000004e+03, 5.184614999999999782e+03, 0.000000000000000000e+00, 0.000000000000000000e+00, 1.000000000000000000e+02
1.070000000000000000e+02, 5.004614999999999782e+03, 4.324103000000000065e+03, 4.132307999999999993e+03, 4.107692000000000007e+03, 5.190769000000000233e+03, 0.000000000000000000e+00, 0.000000000000000000e+00, 1.000000000000000000e+02
1.080000000000000000e+02, 5.014872000000000298e+03, 4.332307999999999993e+03, 4.146667000000000371e+03, 4.111282000000000153e+03, 5.202564000000000306e+03, 0.000000000000000000e+00, 0.000000000000000000e+00, 1.000000000000000000e+02
1.090000000000000000e+02, 5.020512999999999920e+03, 4.338462000000000444e+03, 4.154872000000000298e+03, 4.111282000000000153e+03, 5.202564000000000306e+03, 0.000000000000000000e+00, 0.000000000000000000e+00, 1.000000000000000000e+02
1.100000000000000000e+02, 5.013332999999999629e+03, 4.346667000000000371e+03, 4.154872000000000298e+03, 4.113845999999999549e+03, 5.194872000000000298e+03, 0.000000000000000000e+00, 0.000000000000000000e+00, 1.000000000000000000e+02
1.110000000000000000e+02, 5.002051000000000386e+03, 4.354872000000000298e+03, 4.145640999999999622e+03, 4.121537999999999556e+03, 5.187692000000000007e+03, 0.000000000000000000e+00, 0.000000000000000000e+00, 1.000000000000000000e+02
1.120000000000000000e+02, 5.001537999999999556e+03, 4.354872000000000298e+03, 4.153845999999999549e+03, 4.118974000000000160e+03, 5.191795000000000073e+03, 0.000000000000000000e+00, 0.000000000000000000e+00, 1.000000000000000000e+02
1.130000000000000000e+02, 5.005127999999999702e+03, 4.342564000000000306e+03, 4.169230999999999767e+03, 4.109230999999999767e+03, 5.198462000000000444e+03, 0.000000000000000000e+00, 0.000000000000000000e+00, 1.000000000000000000e+02
1.140000000000000000e+02, 4.996922999999999774e+03, 4.338462000000000444e+03, 4.158462000000000444e+03, 4.112307999999999993e+03, 5.192307999999999993e+03, 0.000000000000000000e+00, 0.000000000000000000e+00, 1.000000000000000000e+02
1.150000000000000000e+02, 4.993332999999999629e+03, 4.340512999999999920e+03, 4.138462000000000444e+03, 4.122051000000000386e+03, 5.186154000000000451e+03, 0.000000000000000000e+00, 0.000000000000000000e+00, 1.000000000000000000e+02
1.160000000000000000e+02, 5.002564000000000306e+03, 4.340512999999999920e+03, 4.132820999999999913e+03, 4.116922999999999774e+03, 5.183077000000000226e+03, 0.000000000000000000e+00, 0.000000000000000000e+00, 1.000000000000000000e+02
1.170000000000000000e+02, 5.008204999999999927e+03, 4.336409999999999854e+03, 4.136922999999999774e+03, 4.103077000000000226e+03, 5.180000000000000000e+03, 0.000000000000000000e+00, 0.000000000000000000e+00, 1.000000000000000000e+02
1.180000000000000000e+02, 5.000000000000000000e+03, 4.342564000000000306e+03, 4.137948999999999614e+03, 4.100000000000000000e+03, 5.185640999999999622e+03, 0.000000000000000000e+00, 0.000000000000000000e+00, 1.000000000000000000e+02
1.190000000000000000e+02, 4.983590000000000146e+03, 4.336409999999999854e+03, 4.137435999999999694e+03, 4.106667000000000371e+03, 5.182564000000000306e+03, 0.000000000000000000e+00, 0.000000000000000000e+00, 1.000000000000000000e+02
1.200000000000000000e+02, 4.976922999999999774e+03, 4.326154000000000451e+03, 4.144614999999999782e+03, 4.108717999999999847e+03, 5.174359000000000378e+03, 0.000000000000000000e+00, 0.000000000000000000e+00, 1.000000000000000000e+02
1.210000000000000000e+02, 4.978462000000000444e+03, 4.332307999999999993e+03, 4.155385000000000218e+03, 4.113845999999999549e+03, 5.173332999999999629e+03, 0.000000000000000000e+00, 0.000000000000000000e+00, 1.000000000000000000e+02
1.220000000000000000e+02, 4.980512999999999920e+03, 4.336409999999999854e+03, 4.156409999999999854e+03, 4.127692000000000007e+03, 5.174872000000000298e+03, 0.000000000000000000e+00, 0.000000000000000000e+00, 1.000000000000000000e+02
1.230000000000000000e+02, 4.981537999999999556e+03, 4.336409999999999854e+03, 4.143590000000000146e+03, 4.129230999999999767e+03, 5.169743999999999687e+03, 0.000000000000000000e+00, 0.000000000000000000e+00, 1.000000000000000000e+02
1.240000000000000000e+02, 4.977435999999999694e+03, 4.342564000000000306e+03, 4.136409999999999854e+03, 4.119487000000000080e+03, 5.159487000000000080e+03, 0.000000000000000000e+00, 0.000000000000000000e+00, 1.000000000000000000e+02
1.250000000000000000e+02, 4.968717999999999847e+03, 4.342564000000000306e+03, 4.141025999999999840e+03, 4.114872000000000298e+03, 5.155385000000000218e+03, 0.000000000000000000e+00, 0.000000000000000000e+00, 1.000000000000000000e+02
1.260000000000000000e+02, 4.950769000000000233e+03, 4.334359000000000378e+03, 4.136922999999999774e+03, 4.104614999999999782e+03, 5.151282000000000153e+03, 0.000000000000000000e+00, 0.000000000000000000e+00, 1.000000000000000000e+02
1.270000000000000000e+02, 4.935385000000000218e+03, 4.332307999999999993e+03, 4.125640999999999622e+03, 4.090255999999999858e+03, 5.138462000000000444e+03, 0.000000000000000000e+00, 0.000000000000000000e+00, 1.000000000000000000e+02
0.000000000000000000e+00, 4.940512999999999920e+03, 4.342564000000000306e+03, 4.125127999999999702e+03, 4.098462000000000444e+03, 5.134872000000000298e+03, 0.000000000000000000e+00, 0.000000000000000000e+00, 1.000000000000000000e+02
1.000000000000000000e+00, 4.944614999999999782e+03, 4.350769000000000233e+03, 4.123590000000000146e+03, 4.111795000000000073e+03, 5.142051000000000386e+03, 0.000000000000000000e+00, 0.000000000000000000e+00, 1.000000000000000000e+02
2.000000000000000000e+00, 4.930769000000000233e+03, 4.344614999999999782e+03, 4.109230999999999767e+03, 4.104103000000000065e+03, 5.135385000000000218e+03, 0.000000000000000000e+00, 0.000000000000000000e+00, 1.000000000000000000e+02
3.000000000000000000e+00, 4.921025999999999840e+03, 4.336409999999999854e+03, 4.102051000000000386e+03, 4.090768999999999778e+03, 5.123077000000000226e+03, 0.000000000000000000e+00, 0.000000000000000000e+00, 1.000000000000000000e+02
4.000000000000000000e+00, 4.921537999999999556e+03, 4.340512999999999920e+03, 4.113332999999999629e+03, 4.086666999999999916e+03, 5.120512999999999920e+03, 0.000000000000000000e+00, 0.000000000000000000e+00, 1.000000000000000000e+02
5.000000000000000000e+00, 4.923077000000000226e+03, 4.350769000000000233e+03, 4.129743999999999687e+03, 4.092820999999999913e+03, 5.125640999999999622e+03, 0.000000000000000000e+00, 0.000000000000000000e+00, 1.000000000000000000e+02
6.000000000000000000e+00, 4.923077000000000226e+03, 4.348717999999999847e+03, 4.139487000000000080e+03, 4.101537999999999556e+03, 5.130769000000000233e+03, 0.000000000000000000e+00, 0.000000000000000000e+00, 1.000000000000000000e+02
7.000000000000000000e+00, 4.916409999999999854e+03, 4.340512999999999920e+03, 4.136409999999999854e+03, 4.110256000000000313e+03, 5.129743999999999687e+03, 0.000000000000000000e+00, 0.000000000000000000e+00, 1.000000000000000000e+02
8.000000000000000000e+00, 4.907692000000000007e+03, 4.338462000000000444e+03, 4.129230999999999767e+03, 4.117948999999999614e+03, 5.126154000000000451e+03, 0.000000000000000000e+00, 0.000000000000000000e+00, 1.000000000000000000e+02
9.000000000000000000e+00, 4.909230999999999767e+03, 4.348717999999999847e+03, 4.126667000000000371e+03, 4.123077000000000226e+03, 5.127179000000000087e+03, 0.000000000000000000e+00, 0.000000000000000000e+00, 1.000000000000000000e+02
1.000000000000000000e+01, 4.900000000000000000e+03, 4.350769000000000233e+03, 4.128204999999999927e+03, 4.127179000000000087e+03, 5.121025999999999840e+03, 0.000000000000000000e+00, 0.000000000000000000e+00, 1.000000000000000000e+02
1.100000000000000000e+01, 4.876409999999999854e+03, 4.340512999999999920e+03, 4.132820999999999913e+03, 4.122564000000000306e+03, 5.101537999999999556e+03, 0.000000000000000000e+00, 0.000000000000000000e+00, 1.000000000000000000e+02
1.200000000000000000e+01, 4.868204999999999927e+03, 4.338462000000000444e+03, 4.138462000000000444e+03, 4.120000000000000000e+03, 5.095385000000000218e+03, 0.000000000000000000e+00, 0.000000000000000000e+00, 1.000000000000000000e+02
1.300000000000000000e+01, 4.874872000000000298e+03, 4.346667000000000371e+03, 4.137435999999999694e+03, 4.127179000000000087e+03, 5.100512999999999920e+03, 0.000000000000000000e+00, 0.000000000000000000e+00, 1.000000000000000000e+02
1.400000000000000000e+01, 4.874872000000000298e+03, 4.346667000000000371e+03, 4.131282000000000153e+03, 4.123590000000000146e+03, 5.095896999999999935e+03, 0.000000000000000000e+00, 0.000000000000000000e+00, 1.000000000000000000e+02
1.500000000000000000e+01, 4.870769000000000233e+03, 4.342564000000000306e+03, 4.129230999999999767e+03, 4.117948999999999614e+03, 5.092820999999999913e+03, 0.000000000000000000e+00, 0.000000000000000000e+00, 1.000000000000000000e+02
1.600000000000000000e+01, 4.868204999999999927e+03, 4.350769000000000233e+03, 4.126154000000000451e+03, 4.123077000000000226e+03, 5.090256000000000313e+03, 0.000000000000000000e+00, 0.000000000000000000e+00, 1.000000000000000000e+02
1.700000000000000000e+01, 4.869743999999999687e+03, 4.354872000000000298e+03, 4.117948999999999614e+03, 4.124103000000000065e+03, 5.086154000000000451e+03, 0.000000000000000000e+00, 0.000000000000000000e+00, 1.000000000000000000e+02
1.800000000000000000e+01, 4.877948999999999614e+03, 4.352820999999999913e+03, 4.124103000000000065e+03, 4.114872000000000298e+03, 5.092307999999999993e+03, 0.000000000000000000e+00, 0.000000000000000000e+00, 1.000000000000000000e+02
1.900000000000000000e+01, 4.877435999999999694e+03, 4.354872000000000298e+03, 4.144103000000000065e+03, 4.108717999999999847e+03, 5.095896999999999935e+03, 0.000000000000000000e+00, 0.000000000000000000e+00, 1.000000000000000000e+02
2.000000000000000000e+01, 4.863590000000000146e+03, 4.358974000000000160e+03, 4.147692000000000007e+03, 4.116922999999999774e+03, 5.083590000000000146e+03, 0.000000000000000000e+00, 0.000000000000000000e+00, 1.000000000000000000e+02
2.100000000000000000e+01, 4.855385000000000218e+03, 4.358974000000000160e+03, 4.138974000000000160e+03, 4.123590000000000146e+03, 5.068204999999999927e+03, 0.000000000000000000e+00, 0.000000000000000000e+00, 1.000000000000000000e+02
2.200000000000000000e+01, 4.856922999999999774e+03, 4.365127999999999702e+03, 4.146667000000000371e+03, 4.122051000000000386e+03, 5.069230999999999767e+03, 0.000000000000000000e+00, 0.000000000000000000e+00, 1.000000000000000000e+02
2.300000000000000000e+01, 4.860512999999999920e+03, 4.371282000000000153e+03, 4.157435999999999694e+03, 4.127692000000000007e+03, 5.078462000000000444e+03, 0.000000000000000000e+00, 0.000000000000000000e+00, 1.000000000000000000e+02
2.400000000000000000e+01, 4.857948999999999614e+03, 4.367179000000000087e+03, 4.155896999999999935e+03, 4.138974000000000160e+03, 5.074872000000000298e+03, 0.000000000000000000e+00, 0.000000000000000000e+00, 1.000000000000000000e+02
2.500000000000000000e+01, 4.849743999999999687e+03, 4.356922999999999774e+03, 4.152307999999999993e+03, 4.136409999999999854e+03, 5.063590000000000146e+03, 0.000000000000000000e+00, 0.000000000000000000e+00, 1.000000000000000000e+02
2.600000000000000000e+01, 4.834359000000000378e+03, 4.346667000000000371e+03, 4.142051000000000386e+03, 4.125640999999999622e+03, 5.054359000000000378e+03, 0.000000000000000000e+00, 0.000000000000000000e+00, 1.000000000000000000e+02
2.700000000000000000e+01, 4.814872000000000298e+03, 4.340512999999999920e+03, 4.124614999999999782e+03, 4.125127999999999702e+03, 5.040000000000000000e+03, 0.000000000000000000e+00, 0.000000000000000000e+00, 1.000000000000000000e+02
2.800000000000000000e+01, 4.805127999999999702e+03, 4.340512999999999920e+03, 4.119487000000000080e+03, 4.117948999999999614e+03, 5.030256000000000313e+03, 0.000000000000000000e+00, 0.000000000000000000e+00, 1.000000000000000000e+02
2.900000000000000000e+01, 4.796922999999999774e+03, 4.342564000000000306e+03, 4.123590000000000146e+03, 4.100512999999999920e+03, 5.021537999999999556e+03, 0.000000000000000000e+00, 0.000000000000000000e+00, 1.000000000000000000e+02
3.000000000000000000e+01, 4.770769000000000233e+03, 4.336409999999999854e+03, 4.115385000000000218e+03, 4.091795000000000073e+03, 4.996409999999999854e+03, 0.000000000000000000e+00, 0.000000000000000000e+00, 1.000000000000000000e+02
3.100000000000000000e+01, 4.746667000000000371e+03, 4.332307999999999993e+03, 4.107179000000000087e+03, 4.101025999999999840e+03, 4.976922999999999774e+03, 0.000000000000000000e+00, 0.000000000000000000e+00, 1.000000000000000000e+02
3.200000000000000000e+01, 4.742051000000000386e+03, 4.340512999999999920e+03, 4.120000000000000000e+03, 4.116409999999999854e+03, 4.979487000000000080e+03, 0.000000000000000000e+00, 0.000000000000000000e+00, 1.000000000000000000e+02
3.300000000000000000e+01, 4.732820999999999913e+03, 4.342564000000000306e+03, 4.131282000000000153e+03, 4.116922999999999774e+03, 4.975385000000000218e+03, 0.000000000000000000e+00, 0.000000000000000000e+00, 1.000000000000000000e+02
3.400000000000000000e+01, 4.714872000000000298e+03, 4.330256000000000313e+03, 4.120512999999999920e+03, 4.118462000000000444e+03, 4.957435999999999694e+03, 0.000000000000000000e+00, 0.000000000000000000e+00, 1.000000000000000000e+02
3.500000000000000000e+01, 4.709230999999999767e+03, 4.336409999999999854e+03, 4.121537999999999556e+03, 4.119487000000000080e+03, 4.947692000000000007e+03, 0.000000000000000000e+00, 0.000000000000000000e+00, 1.000000000000000000e+02
3.600000000000000000e+01, 4.706154000000000451e+03, 4.344614999999999782e+03, 4.137948999999999614e+03, 4.104614999999999782e+03, 4.940512999999999920e+03, 0.000000000000000000e+00, 0.000000000000000000e+00, 1.000000000000000000e+02
3.700000000000000000e+01, 4.698462000000000444e+03, 4.336409999999999854e+03, 4.132820999999999913e+03, 4.102564000000000306e+03, 4.930256000000000313e+03, 0.000000000000000000e+00, 0.000000000000000000e+00, 1.000000000000000000e+02
3.800000000000000000e+01, 4.700512999999999920e+03, 4.332307999999999993e+03, 4.115896999999999935e+03, 4.126154000000000451e+03, 4.936409999999999854e+03, 0.000000000000000000e+00, 0.000000000000000000e+00, 1.000000000000000000e+02
3.900000000000000000e+01, 4.696409999999999854e+03, 4.334359000000000378e+03, 4.113845999999999549e+03, 4.128204999999999927e+03, 4.940000000000000000e+03, 0.000000000000000000e+00, 0.000000000000000000e+00, 1.000000000000000000e+02
4.000000000000000000e+01, 4.683590000000000146e+03, 4.336409999999999854e+03, 4.121025999999999840e+03, 4.110256000000000313e+03, 4.928204999999999927e+03, 0.000000000000000000e+00, 0.000000000000000000e+00, 1.000000000000000000e+02
4.100000000000000000e+01, 4.683077000000000226e+03, 4.340512999999999920e+03, 4.129743999999999687e+03, 4.104103000000000065e+03, 4.925640999999999622e+03, 0.000000000000000000e+00, 0.000000000000000000e+00, 1.000000000000000000e+02
4.200000000000000000e+01, 4.683590000000000146e+03, 4.340512999999999920e+03, 4.131795000000000073e+03, 4.097435999999999694e+03, 4.924614999999999782e+03, 0.000000000000000000e+00, 0.000000000000000000e+00, 1.000000000000000000e+02
4.300000000000000000e+01, 4.676922999999999774e+03, 4.332307999999999993e+03, 4.128717999999999847e+03, 4.092307999999999993e+03, 4.913845999999999549e+03, 0.000000000000000000e+00, 0.000000000000000000e+00, 1.000000000000000000e+02
4.400000000000000000e+01, 4.678974000000000160e+03, 4.334359000000000378e+03, 4.134872000000000298e+03, 4.092820999999999913e+03, 4.907692000000000007e+03, 0.000000000000000000e+00, 0.000000000000000000e+00, 1.000000000000000000e+02
4.500000000000000000e+01, 4.678462000000000444e+03, 4.344614999999999782e+03, 4.143590000000000146e+03, 4.096922999999999774e+03, 4.910769000000000233e+03, 0.000000000000000000e+00, 0.000000000000000000e+00, 1.000000000000000000e+02
4.600000000000000000e+01, 4.663590000000000146e+03, 4.340512999999999920e+03, 4.140512999999999920e+03, 4.104103000000000065e+03, 4.908717999999999847e+03, 0.000000000000000000e+00, 0.000000000000000000e+00, 1.000000000000000000e+02
4.700000000000000000e+01, 4.651795000000000073e+03, 4.332307999999999993e+03, 4.135385000000000218e+03, 4.102564000000000306e+03, 4.904614999999999782e+03, 0.000000000000000000e+00, 0.000000000000000000e+00, 1.000000000000000000e+02
4.800000000000000000e+01, 4.651282000000000153e+03, 4.320000000000000000e+03, 4.136922999999999774e+03, 4.105640999999999622e+03, 4.909230999999999767e+03, 0.000000000000000000e+00, 0.000000000000000000e+00, 1.000000000000000000e+02
4.900000000000000000e+01, 4.642051000000000386e+03, 4.315896999999999935e+03, 4.137435999999999694e+03, 4.124614999999999782e+03, 4.906667000000000371e+03, 0.000000000000000000e+00, 0.000000000000000000e+00, 1.000000000000000000e+02
5.000000000000000000e+01, 4.629230999999999767e+03, 4.322051000000000386e+03, 4.135385000000000218e+03, 4.132307999999999993e+03, 4.892820999999999913e+03, 0.000000000000000000e+00, 0.000000000000000000e+00, 1.000000000000000000e+02
5.100000000000000000e+01, 4.630769000000000233e+03, 4.324103000000000065e+03, 4.138462000000000444e+03, 4.123077000000000226e+03, 4.887179000000000087e+03, 0.000000000000000000e+00, 0.000000000000000000e+00, 1.000000000000000000e+02
5.200000000000000000e+01, 4.631282000000000153e+03, 4.313845999999999549e+03, 4.140000000000000000e+03, 4.123077000000000226e+03, 4.885640999999999622e+03, 0.000000000000000000e+00, 0.000000000000000000e+00, 1.000000000000000000e+02
5.300000000000000000e+01, 4.616922999999999774e+03, 4.305640999999999622e+03, 4.131282000000000153e+03, 4.123077000000000226e+03, 4.882564000000000306e+03, 0.000000000000000000e+00, 0.000000000000000000e+00, 1.000000000000000000e+02
5.400000000000000000e+01, 4.595896999999999935e+03, 4.311795000000000073e+03, 4.116409999999999854e+03, 4.110256000000000313e+03, 4.871282000000000153e+03, 0.000000000000000000e+00, 0.000000000000000000e+00, 1.000000000000000000e+02
5.500000000000000000e+01, 4.585127999999999702e+03, 4.311795000000000073e+03, 4.117948999999999614e+03, 4.103077000000000226e+03, 4.853332999999999629e+03, 0.000000000000000000e+00, 0.000000000000000000e+00, 1.000000000000000000e+02
5.600000000000000000e+01, 4.588204999999999927e+03, 4.311795000000000073e+03, 4.135896999999999935e+03, 4.111282000000000153e+03, 4.851795000000000073e+03, 0.000000000000000000e+00, 0.000000000000000000e+00, 1.000000000000000000e+02
5.700000000000000000e+01, 4.583077000000000226e+03, 4.320000000000000000e+03, 4.136922999999999774e+03, 4.119487000000000080e+03, 4.857435999999999694e+03, 0.000000000000000000e+00, 0.000000000000000000e+00, 1.000000000000000000e+02
5.800000000000000000e+01, 4.561025999999999840e+03, 4.322051000000000386e+03, 4.127692000000000007e+03, 4.114872000000000298e+03, 4.841025999999999840e+03, 0.000000000000000000e+00, 0.000000000000000000e+00, 1.000000000000000000e+02
5.900000000000000000e+01, 4.540000000000000000e+03, 4.309743999999999687e+03, 4.136922999999999774e+03, 4.110256000000000313e+03, 4.821025999999999840e+03, 0.000000000000000000e+00, 0.000000000000000000e+00, 1.000000000000000000e+02
6.000000000000000000e+01, 4.536409999999999854e+03, 4.301537999999999556e+03, 4.143590000000000146e+03, 4.107692000000000007e+03, 4.820000000000000000e+03, 0.000000000000000000e+00, 0.000000000000000000e+00, 1.000000000000000000e+02
6.100000000000000000e+01, 4.541537999999999556e+03, 4.299487000000000080e+03, 4.126667000000000371e+03, 4.113332999999999629e+03, 4.819487000000000080e+03, 0.000000000000000000e+00, 0.000000000000000000e+00, 1.000000000000000000e+02
6.200000000000000000e+01, 4.538462000000000444e+03, 4.299487000000000080e+03, 4.120000000000000000e+03, 4.132820999999999913e+03, 4.817948999999999614e+03, 0.000000000000000000e+00, 0.000000000000000000e+00, 1.000000000000000000e+02
6.300000000000000000e+01, 4.526154000000000451e+03, 4.305640999999999622e+03, 4.125640999999999622e+03, 4.137435999999999694e+03, 4.816409999999999854e+03, 0.000000000000000000e+00, 0.000000000000000000e+00, 1.000000000000000000e+02
6.400000000000000000e+01, 4.513845999999999549e+03, 4.301537999999999556e+03, 4.113332999999999629e+03, 4.113332999999999629e+03, 4.801025999999999840e+03, 0.000000000000000000e+00, 0.000000000000000000e+00, 1.000000000000000000e+02
6.500000000000000000e+01, 4.509743999999999687e+03, 4.295385000000000218e+03, 4.101537999999999556e+03, 4.100000000000000000e+03, 4.788204999999999927e+03, 0.000000000000000000e+00, 0.000000000000000000e+00, 1.000000000000000000e+02
6.600000000000000000e+01, 4.509230999999999767e+03, 4.299487000000000080e+03, 4.107692000000000007e+03, 4.104614999999999782e+03, 4.789743999999999687e+03, 0.000000000000000000e+00, 0.000000000000000000e+00, 1.000000000000000000e+02
6.700000000000000000e+01, 4.504103000000000065e+03, 4.295385000000000218e+03, 4.106667000000000371e+03, 4.100512999999999920e+03, 4.778974000000000160e+03, 0.000000000000000000e+00, 0.000000000000000000e+00, 1.000000000000000000e+02
6.800000000000000000e+01, 4.497435999999999694e+03, 4.287179000000000087e+03, 4.099487000000000080e+03, 4.100000000000000000e+03, 4.768204999999999927e+03, 0.000000000000000000e+00, 0.000000000000000000e+00, 1.000000000000000000e+02
6.900000000000000000e+01, 4.498462000000000444e+03, 4.289230999999999767e+03, 4.112820999999999913e+03, 4.108204999999999927e+03, 4.780000000000000000e+03, 0.000000000000000000e+00, 0.000000000000000000e+00, 1.000000000000000000e+02
7.000000000000000000e+01, 4.489230999999999767e+03, 4.289230999999999767e+03, 4.126667000000000371e+03, 4.108717999999999847e+03, 4.777435999999999694e+03, 0.000000000000000000e+00, 0.000000000000000000e+00, 1.000000000000000000e+02
7.100000000000000000e+01, 4.476409999999999854e+03, 4.289230999999999767e+03, 4.118462000000000444e+03, 4.113332999999999629e+03, 4.759487000000000080e+03, 0.000000000000000000e+00, 0.000000000000000000e+00, 1.000000000000000000e+02
7.200000000000000000e+01, 4.480512999999999920e+03, 4.293332999999999629e+03, 4.124614999999999782e+03, 4.131282000000000153e+03, 4.764103000000000065e+03, 0.000000000000000000e+00, 0.000000000000000000e+00, 1.000000000000000000e+02
7.300000000000000000e+01, 4.482564000000000306e+03, 4.293332999999999629e+03, 4.147179000000000087e+03, 4.138974000000000160e+03, 4.777435999999999694e+03, 0.000000000000000000e+00, 0.000000000000000000e+00, 1.000000000000000000e+02
7.400000000000000000e+01, 4.466667000000000371e+03, 4.291282000000000153e+03, 4.147179000000000087e+03, 4.133332999999999629e+03, 4.773332999999999629e+03, 0.000000000000000000e+00, 0.000000000000000000e+00, 1.000000000000000000e+02
7.500000000000000000e+01, 4.450769000000000233e+03, 4.293332999999999629e+03, 4.136922999999999774e+03, 4.137435999999999694e+03, 4.760000000000000000e+03, 0.000000000000000000e+00, 0.000000000000000000e+00, 1.000000000000000000e+02
7.600000000000000000e+01, 4.438462000000000444e+03, 4.295385000000000218e+03, 4.144103000000000065e+03, 4.147179000000000087e+03, 4.749743999999999687e+03, 0.000000000000000000e+00, 0.000000000000000000e+00, 1.000000000000000000e+02
7.700000000000000000e+01, 4.420512999999999920e+03, 4.301537999999999556e+03, 4.145127999999999702e+03, 4.142564000000000306e+03, 4.733332999999999629e+03, 0.000000000000000000e+00, 0.000000000000000000e+00, 1.000000000000000000e+02
7.800000000000000000e+01, 4.403590000000000146e+03, 4.309743999999999687e+03, 4.127179000000000087e+03, 4.130769000000000233e+03, 4.725127999999999702e+03, 0.000000000000000000e+00, 0.000000000000000000e+00, 1.000000000000000000e+02
7.900000000000000000e+01, 4.396409999999999854e+03, 4.309743999999999687e+03, 4.119487000000000080e+03, 4.125640999999999622e+03, 4.729743999999999687e+03, 0.000000000000000000e+00, 0.000000000000000000e+00, 1.000000000000000000e+02
8.000000000000000000e+01, 4.391282000000000153e+03, 4.301537999999999556e+03, 4.127179000000000087e+03, 4.116922999999999774e+03, 4.732820999999999913e+03, 0.000000000000000000e+00, 0.000000000000000000e+00, 1.000000000000000000e+02
8.100000000000000000e+01, 4.385640999999999622e+03, 4.293332999999999629e+03, 4.128717999999999847e+03, 4.115896999999999935e+03, 4.729230999999999767e+03, 0.000000000000000000e+00, 0.000000000000000000e+00, 1.000000000000000000e+02
8.200000000000000000e+01, 4.372307999999999993e+03, 4.293332999999999629e+03, 4.122051000000000386e+03, 4.123590000000000146e+03, 4.711795000000000073e+03, 0.000000000000000000e+00, 0.000000000000000000e+00, 1.000000000000000000e+02
8.300000000000000000e+01, 4.360512999999999920e+03, 4.291282000000000153e+03, 4.115385000000000218e+03, 4.122051000000000386e+03, 4.693845999999999549e+03, 0.000000000000000000e+00, 0.000000000000000000e+00, 1.000000000000000000e+02
8.400000000000000000e+01, 4.363077000000000226e+03, 4.293332999999999629e+03, 4.118462000000000444e+03, 4.125640999999999622e+03, 4.703077000000000226e+03, 0.000000000000000000e+00, 0.000000000000000000e+00, 1.000000000000000000e+02
8.500000000000000000e+01, 4.363077000000000226e+03, 4.293332999999999629e+03, 4.122051000000000386e+03, 4.139487000000000080e+03, 4.713845999999999549e+03, 0.000000000000000000e+00, 0.000000000000000000e+00, 1.000000000000000000e+02
8.600000000000000000e+01, 4.344103000000000065e+03, 4.281025999999999840e+03, 4.112307999999999993e+03, 4.136922999999999774e+03, 4.692820999999999913e+03, 0.000000000000000000e+00, 0.000000000000000000e+00, 1.000000000000000000e+02
8.700000000000000000e+01, 4.321025999999999840e+03, 4.268717999999999847e+03, 4.098462000000000444e+03, 4.115896999999999935e+03, 4.666154000000000451e+03, 0.000000000000000000e+00, 0.000000000000000000e+00, 1.000000000000000000e+02
8.800000000000000000e+01, 4.319487000000000080e+03, 4.278974000000000160e+03, 4.107692000000000007e+03, 4.113332999999999629e+03, 4.669743999999999687e+03, 0.000000000000000000e+00, 0.000000000000000000e+00, 1.000000000000000000e+02
8.900000000000000000e+01, 4.333845999999999549e+03, 4.293332999999999629e+03, 4.132820999999999913e+03, 4.130256000000000313e+03, 4.687179000000000087e+03, 0.000000000000000000e+00, 0.000000000000000000e+00, 1.000000000000000000e+02
9.000000000000000000e+01, 4.331282000000000153e+03, 4.291282000000000153e+03, 4.137435999999999694e+03, 4.138974000000000160e+03, 4.680000000000000000e+03, 0.000000000000000000e+00, 0.000000000000000000e+00, 1.000000000000000000e+02
9.100000000000000000e+01, 4.311795000000000073e+03, 4.281025999999999840e+03, 4.128717999999999847e+03, 4.132820999999999913e+03, 4.663077000000000226e+03, 0.000000000000000000e+00, 0.000000000000000000e+00, 1.000000000000000000e+02
9.200000000000000000e+01, 4.297948999999999614e+03, 4.276922999999999774e+03, 4.135896999999999935e+03, 4.139487000000000080e+03, 4.671795000000000073e+03, 0.000000000000000000e+00, 0.000000000000000000e+00, 1.000000000000000000e+02
9.300000000000000000e+01, 4.299487000000000080e+03, 4.278974000000000160e+03, 4.147692000000000007e+03, 4.154359000000000378e+03, 4.683077000000000226e+03, 0.000000000000000000e+00, 0.000000000000000000e+00, 1.000000000000000000e+02
9.400000000000000000e+01, 4.297948999999999614e+03, 4.270769000000000233e+03, 4.136922999999999774e+03, 4.140000000000000000e+03, 4.666154000000000451e+03, 0.000000000000000000e+00, 0.000000000000000000e+00, 1.000000000000000000e+02
9.500000000000000000e+01, 4.276922999999999774e+03, 4.256409999999999854e+03, 4.113845999999999549e+03, 4.119487000000000080e+03, 4.637435999999999694e+03, 0.000000000000000000e+00, 0.000000000000000000e+00, 1.000000000000000000e+02
9.600000000000000000e+01, 4.254359000000000378e+03, 4.248204999999999927e+03, 4.104614999999999782e+03, 4.127692000000000007e+03, 4.627692000000000007e+03, 0.000000000000000000e+00, 0.000000000000000000e+00, 1.000000000000000000e+02
9.700000000000000000e+01, 4.251795000000000073e+03, 4.250256000000000313e+03, 4.109743999999999687e+03, 4.137435999999999694e+03, 4.631795000000000073e+03, 0.000000000000000000e+00, 0.000000000000000000e+00, 1.000000000000000000e+02
9.800000000000000000e+01, 4.253332999999999629e+03, 4.248204999999999927e+03, 4.108204999999999927e+03, 4.128717999999999847e+03, 4.621025999999999840e+03, 0.000000000000000000e+00, 0.000000000000000000e+00, 1.000000000000000000e+02
9.900000000000000000e+01, 4.247692000000000007e+03, 4.246154000000000451e+03, 4.102564000000000306e+03, 4.125127999999999702e+03, 4.609743999999999687e+03, 0.000000000000000000e+00, 0.000000000000000000e+00, 1.000000000000000000e+02
1.000000000000000000e+02, 4.247692000000000007e+03, 4.256409999999999854e+03, 4.113845999999999549e+03, 4.129743999999999687e+03, 4.614359000000000378e+03, 0.000000000000000000e+00, 0.000000000000000000e+00, 1.000000000000000000e+02
1.010000000000000000e+02, 4.247692000000000007e+03, 4.266667000000000371e+03, 4.127692000000000007e+03, 4.135385000000000218e+03, 4.619487000000000080e+03, 0.000000000000000000e+00, 0.000000000000000000e+00, 1.000000000000000000e+02
1.020000000000000000e+02, 4.235385000000000218e+03, 4.262564000000000306e+03, 4.120512999999999920e+03, 4.138974000000000160e+03, 4.606154000000000451e+03, 0.000000000000000000e+00, 0.000000000000000000e+00, 1.000000000000000000e+02
1.030000000000000000e+02, 4.235385000000000218e+03, 4.260512999999999920e+03, 4.112307999999999993e+03, 4.130769000000000233e+03, 4.594359000000000378e+03, 0.000000000000000000e+00, 0.000000000000000000e+00, 1.000000000000000000e+02
1.040000000000000000e+02, 4.253332999999999629e+03, 4.260512999999999920e+03, 4.121537999999999556e+03, 4.129230999999999767e+03, 4.612820999999999913e+03, 0.000000000000000000e+00, 0.000000000000000000e+00, 1.000000000000000000e+02
1.050000000000000000e+02, 4.252820999999999913e+03, 4.252307999999999993e+03, 4.127692000000000007e+03, 4.142564000000000306e+03, 4.622564000000000306e+03, 0.000000000000000000e+00, 0.000000000000000000e+00, 1.000000000000000000e+02
1.060000000000000000e+02, 4.233332999999999629e+03, 4.246154000000000451e+03, 4.121537999999999556e+03, 4.152820999999999913e+03, 4.611282000000000153e+03, 0.000000000000000000e+00, 0.000000000000000000e+00, 1.000000000000000000e+02
1.070000000000000000e+02, 4.229743999999999687e+03, 4.248204999999999927e+03, 4.112307999999999993e+03, 4.148204999999999927e+03, 4.611795000000000073e+03, 0.000000000000000000e+00, 0.000000000000000000e+00, 1.000000000000000000e+02
1.080000000000000000e+02, 4.232820999999999913e+03, 4.248204999999999927e+03, 4.104103000000000065e+03, 4.135385000000000218e+03, 4.608717999999999847e+03, 0.000000000000000000e+00, 0.000000000000000000e+00, 1.000000000000000000e+02
1.090000000000000000e+02, 4.216409999999999854e+03, 4.246154000000000451e+03, 4.102564000000000306e+03, 4.123077000000000226e+03, 4.587179000000000087e+03, 0.000000000000000000e+00, 0.000000000000000000e+00, 1.000000000000000000e+02
1.100000000000000000e+02, 4.199487000000000080e+03, 4.246154000000000451e+03, 4.103590000000000146e+03, 4.116922999999999774e+03, 4.574359000000000378e+03, 0.000000000000000000e+00, 0.000000000000000000e+00, 1.000000000000000000e+02
1.110000000000000000e+02, 4.196922999999999774e+03, 4.248204999999999927e+03, 4.102564000000000306e+03, 4.129230999999999767e+03, 4.576409999999999854e+03, 0.000000000000000000e+00, 0.000000000000000000e+00, 1.000000000000000000e+02
1.120000000000000000e+02, 4.190769000000000233e+03, 4.248204999999999927e+03, 4.111282000000000153e+03, 4.138974000000000160e+03, 4.570256000000000313e+03, 0.000000000000000000e+00, 0.000000000000000000e+00, 1.000000000000000000e+02
1.130000000000000000e+02, 4.182051000000000386e+03, 4.246154000000000451e+03, 4.123590000000000146e+03, 4.126667000000000371e+03, 4.560512999999999920e+03, 0.000000000000000000e+00, 0.000000000000000000e+00, 1.000000000000000000e+02
1.140000000000000000e+02, 4.181025999999999840e+03, 4.248204999999999927e+03, 4.121025999999999840e+03, 4.124103000000000065e+03, 4.560000000000000000e+03, 0.000000000000000000e+00, 0.000000000000000000e+00, 1.000000000000000000e+02
1.150000000000000000e+02, 4.173845999999999549e+03, 4.246154000000000451e+03, 4.117948999999999614e+03, 4.138462000000000444e+03, 4.558462000000000444e+03, 0.000000000000000000e+00, 0.000000000000000000e+00, 1.000000000000000000e+02
1.160000000000000000e+02, 4.166667000000000371e+03, 4.237948999999999614e+03, 4.120512999999999920e+03, 4.135385000000000218e+03, 4.550769000000000233e+03, 0.000000000000000000e+00, 0.000000000000000000e+00, 1.000000000000000000e+02
1.170000000000000000e+02, 4.166667000000000371e+03, 4.240000000000000000e+03, 4.120512999999999920e+03, 4.121025999999999840e+03, 4.546667000000000371e+03, 0.000000000000000000e+00, 0.000000000000000000e+00, 1.000000000000000000e+02
1.180000000000000000e+02, 4.168204999999999927e+03, 4.246154000000000451e+03, 4.126667000000000371e+03, 4.135385000000000218e+03, 4.555896999999999935e+03, 0.000000000000000000e+00, 0.000000000000000000e+00, 1.000000000000000000e+02
1.190000000000000000e+02, 4.170256000000000313e+03, 4.248204999999999927e+03, 4.134359000000000378e+03, 4.150769000000000233e+03, 4.570256000000000313e+03, 0.000000000000000000e+00, 0.000000000000000000e+00, 1.000000000000000000e+02
1.200000000000000000e+02, 4.160512999999999920e+03, 4.250256000000000313e+03, 4.112307999999999993e+03, 4.135385000000000218e+03, 4.557948999999999614e+03, 0.000000000000000000e+00, 0.000000000000000000e+00, 1.000000000000000000e+02
1.210000000000000000e+02, 4.140000000000000000e+03, 4.246154000000000451e+03, 4.090255999999999858e+03, 4.121537999999999556e+03, 4.533332999999999629e+03, 0.000000000000000000e+00, 0.000000000000000000e+00, 1.000000000000000000e+02
1.220000000000000000e+02, 4.134359000000000378e+03, 4.244103000000000065e+03, 4.106667000000000371e+03, 4.129230999999999767e+03, 4.533332999999999629e+03, 0.000000000000000000e+00, 0.000000000000000000e+00, 1.000000000000000000e+02
1.230000000000000000e+02, 4.138462000000000444e+03, 4.254359000000000378e+03, 4.124614999999999782e+03, 4.146154000000000451e+03, 4.535896999999999935e+03, 0.000000000000000000e+00, 0.000000000000000000e+00, 1.000000000000000000e+02
1.240000000000000000e+02, 4.130769000000000233e+03, 4.258462000000000444e+03, 4.121537999999999556e+03, 4.152307999999999993e+03, 4.521537999999999556e+03, 0.000000000000000000e+00, 0.000000000000000000e+00, 1.000000000000000000e+02
1.250000000000000000e+02, 4.125640999999999622e+03, 4.248204999999999927e+03, 4.121537999999999556e+03, 4.143590000000000146e+03, 4.503077000000000226e+03, 0.000000000000000000e+00, 0.000000000000000000e+00, 1.000000000000000000e+02
1.260000000000000000e+02, 4.130256000000000313e+03, 4.244103000000000065e+03, 4.127179000000000087e+03, 4.135896999999999935e+03, 4.501025999999999840e+03, 0.000000000000000000e+00, 0.000000000000000000e+00, 1.000000000000000000e+02
1.270000000000000000e+02, 4.133845999999999549e+03, 4.250256000000000313e+03, 4.125127999999999702e+03, 4.138462000000000444e+03, 4.514359000000000378e+03, 0.000000000000000000e+00, 0.000000000000000000e+00, 1.000000000000000000e+02
0.000000000000000000e+00, 4.133845999999999549e+03, 4.248204999999999927e+03, 4.121025999999999840e+03, 4.136922999999999774e+03, 4.521025999999999840e+03, 0.000000000000000000e+00, 0.000000000000000000e+00, 1.000000000000000000e+02
1.000000000000000000e+00, 4.136409999999999854e+03, 4.244103000000000065e+03, 4.126667000000000371e+03, 4.143077000000000226e+03, 4.522051000000000386e+03, 0.000000000000000000e+00, 0.000000000000000000e+00, 1.000000000000000000e+02
2.000000000000000000e+00, 4.135385000000000218e+03, 4.246154000000000451e+03, 4.128717999999999847e+03, 4.157435999999999694e+03, 4.520512999999999920e+03, 0.000000000000000000e+00, 0.000000000000000000e+00, 1.000000000000000000e+02
3.000000000000000000e+00, 4.117948999999999614e+03, 4.242051000000000386e+03, 4.118974000000000160e+03, 4.137948999999999614e+03, 4.508717999999999847e+03, 0.000000000000000000e+00, 0.000000000000000000e+00, 1.000000000000000000e+02
4.000000000000000000e+00, 4.112820999999999913e+03, 4.233845999999999549e+03, 4.109743999999999687e+03, 4.118974000000000160e+03, 4.502051000000000386e+03, 0.000000000000000000e+00, 0.000000000000000000e+00, 1.000000000000000000e+02
5.000000000000000000e+00, 4.121025999999999840e+03, 4.229743999999999687e+03, 4.101025999999999840e+03, 4.131795000000000073e+03, 4.502564000000000306e+03, 0.000000000000000000e+00, 0.000000000000000000e+00, 1.000000000000000000e+02
6.000000000000000000e+00, 4.109743999999999687e+03, 4.229743999999999687e+03, 4.091282000000000153e+03, 4.134359000000000378e+03, 4.488717999999999847e+03, 0.000000000000000000e+00, 0.000000000000000000e+00, 1.000000000000000000e+02
7.000000000000000000e+00, 4.088204999999999927e+03, 4.225640999999999622e+03, 4.095385000000000218e+03, 4.125127999999999702e+03, 4.467179000000000087e+03, 0.000000000000000000e+00, 0.000000000000000000e+00, 1.000000000000000000e+02
8.000000000000000000e+00, 4.079487000000000080e+03, 4.229743999999999687e+03, 4.110769000000000233e+03, 4.128204999999999927e+03, 4.452820999999999913e+03, 0.000000000000000000e+00, 0.000000000000000000e+00, 1.000000000000000000e+02
9.000000000000000000e+00, 4.081538000000000011e+03, 4.231795000000000073e+03, 4.121025999999999840e+03, 4.132820999999999913e+03, 4.448204999999999927e+03, 0.000000000000000000e+00, 0.000000000000000000e+00, 1.000000000000000000e+02
1.000000000000000000e+01, 4.084103000000000065e+03, 4.231795000000000073e+03, 4.130769000000000233e+03, 4.137435999999999694e+03, 4.453845999999999549e+03, 0.000000000000000000e+00, 0.000000000000000000e+00, 1.000000000000000000e+02
1.100000000000000000e+01, 4.088717999999999847e+03, 4.240000000000000000e+03, 4.144103000000000065e+03, 4.146154000000000451e+03, 4.466154000000000451e+03, 0.000000000000000000e+00, 0.000000000000000000e+00, 1.000000000000000000e+02
1.200000000000000000e+01, 4.090768999999999778e+03, 4.246154000000000451e+03, 4.144103000000000065e+03, 4.142564000000000306e+03, 4.473845999999999549e+03, 0.000000000000000000e+00, 0.000000000000000000e+00, 1.000000000000000000e+02
1.300000000000000000e+01, 4.090255999999999858e+03, 4.233845999999999549e+03, 4.128204999999999927e+03, 4.138974000000000160e+03, 4.475896999999999935e+03, 0.000000000000000000e+00, 0.000000000000000000e+00, 1.000000000000000000e+02
1.400000000000000000e+01, 4.093846000000000004e+03, 4.225640999999999622e+03, 4.120000000000000000e+03, 4.146667000000000371e+03, 4.478462000000000444e+03, 0.000000000000000000e+00, 0.000000000000000000e+00, 1.000000000000000000e+02
1.500000000000000000e+01, 4.098462000000000444e+03, 4.237948999999999614e+03, 4.123077000000000226e+03, 4.144614999999999782e+03, 4.477948999999999614e+03, 0.000000000000000000e+00, 0.000000000000000000e+00, 1.000000000000000000e+02
1.600000000000000000e+01, 4.101025999999999840e+03, 4.233845999999999549e+03, 4.111795000000000073e+03, 4.142051000000000386e+03, 4.475385000000000218e+03, 0.000000000000000000e+00, 0.000000000000000000e+00, 1.000000000000000000e+02
1.700000000000000000e+01, 4.096922999999999774e+03, 4.215385000000000218e+03, 4.089744000000000142e+03, 4.137435999999999694e+03, 4.466667000000000371e+03, 0.000000000000000000e+00, 0.000000000000000000e+00, 1.000000000000000000e+02
1.800000000000000000e+01, 4.084103000000000065e+03, 4.225640999999999622e+03, 4.088204999999999927e+03, 4.131795000000000073e+03, 4.453332999999999629e+03, 0.000000000000000000e+00, 0.000000000000000000e+00, 1.000000000000000000e+02
1.900000000000000000e+01, 4.071282000000000153e+03, 4.246154000000000451e+03, 4.101537999999999556e+03, 4.143077000000000226e+03, 4.448204999999999927e+03, 0.000000000000000000e+00, 0.000000000000000000e+00, 1.000000000000000000e+02
2.000000000000000000e+01, 4.069744000000000142e+03, 4.240000000000000000e+03, 4.110256000000000313e+03, 4.151282000000000153e+03, 4.445127999999999702e+03, 0.000000000000000000e+00, 0.000000000000000000e+00, 1.000000000000000000e+02
2.100000000000000000e+01, 4.077949000000000069e+03, 4.231795000000000073e+03, 4.118462000000000444e+03, 4.143077000000000226e+03, 4.436922999999999774e+03, 0.000000000000000000e+00, 0.000000000000000000e+00, 1.000000000000000000e+02
2.200000000000000000e+01, 4.075896999999999935e+03, 4.244103000000000065e+03, 4.130769000000000233e+03, 4.135385000000000218e+03, 4.426154000000000451e+03, 0.000000000000000000e+00, 0.000000000000000000e+00, 1.000000000000000000e+02
2.300000000000000000e+01, 4.073846000000000004e+03, 4.248204999999999927e+03, 4.137948999999999614e+03, 4.131282000000000153e+03, 4.427692000000000007e+03, 0.000000000000000000e+00, 0.000000000000000000e+00, 1.000000000000000000e+02
2.400000000000000000e+01, 4.095385000000000218e+03, 4.248204999999999927e+03, 4.144614999999999782e+03, 4.142564000000000306e+03, 4.450256000000000313e+03, 0.000000000000000000e+00, 0.000000000000000000e+00, 1.000000000000000000e+02
2.500000000000000000e+01, 4.111282000000000153e+03, 4.254359000000000378e+03, 4.151282000000000153e+03, 4.173332999999999629e+03, 4.469230999999999767e+03, 0.000000000000000000e+00, 0.000000000000000000e+00, 1.000000000000000000e+02
2.600000000000000000e+01, 4.094358999999999924e+03, 4.248204999999999927e+03, 4.135896999999999935e+03, 4.165640999999999622e+03, 4.460512999999999920e+03, 0.000000000000000000e+00, 0.000000000000000000e+00, 1.000000000000000000e+02
2.700000000000000000e+01, 4.082563999999999851e+03, 4.235896999999999935e+03, 4.118462000000000444e+03, 4.134359000000000378e+03, 4.452820999999999913e+03, 0.000000000000000000e+00, 0.000000000000000000e+00, 1.000000000000000000e+02
2.800000000000000000e+01, 4.097435999999999694e+03, 4.244103000000000065e+03, 4.129230999999999767e+03, 4.149743999999999687e+03, 4.460000000000000000e+03, 0.000000000000000000e+00, 0.000000000000000000e+00, 1.000000000000000000e+02
2.900000000000000000e+01, 4.104103000000000065e+03, 4.250256000000000313e+03, 4.133332999999999629e+03, 4.168204999999999927e+03, 4.458974000000000160e+03, 0.000000000000000000e+00, 0.000000000000000000e+00, 1.000000000000000000e+02
3.000000000000000000e+01, 4.094358999999999924e+03, 4.233845999999999549e+03, 4.111795000000000073e+03, 4.154359000000000378e+03, 4.450769000000000233e+03, 0.000000000000000000e+00, 0.000000000000000000e+00, 1.000000000000000000e+02
3.100000000000000000e+01, 4.086153999999999996e+03, 4.231795000000000073e+03, 4.100512999999999920e+03, 4.148717999999999847e+03, 4.438462000000000444e+03, 0.000000000000000000e+00, 0.000000000000000000e+00, 1.000000000000000000e+02
3.200000000000000000e+01, 4.081025999999999840e+03, 4.248204999999999927e+03, 4.109743999999999687e+03, 4.154359000000000378e+03, 4.422051000000000386e+03, 0.000000000000000000e+00, 0.000000000000000000e+00, 1.000000000000000000e+02
3.300000000000000000e+01, 4.079487000000000080e+03, 4.252307999999999993e+03, 4.125640999999999622e+03, 4.159487000000000080e+03, 4.414359000000000378e+03, 0.000000000000000000e+00, 0.000000000000000000e+00, 1.000000000000000000e+02
3.400000000000000000e+01, 4.078461999999999989e+03, 4.248204999999999927e+03, 4.134359000000000378e+03, 4.160512999999999920e+03, 4.412820999999999913e+03, 0.000000000000000000e+00, 0.000000000000000000e+00, 1.000000000000000000e+02
3.500000000000000000e+01, 4.070768999999999778e+03, 4.246154000000000451e+03, 4.126667000000000371e+03, 4.147692000000000007e+03, 4.402051000000000386e+03, 0.000000000000000000e+00, 0.000000000000000000e+00, 1.000000000000000000e+02
3.600000000000000000e+01, 4.074871999999999844e+03, 4.248204999999999927e+03, 4.124614999999999782e+03, 4.143590000000000146e+03, 4.401537999999999556e+03, 0.000000000000000000e+00, 0.000000000000000000e+00, 1.000000000000000000e+02
3.700000000000000000e+01, 4.092820999999999913e+03, 4.254359000000000378e+03, 4.134359000000000378e+03, 4.157948999999999614e+03, 4.420000000000000000e+03, 0.000000000000000000e+00, 0.000000000000000000e+00, 1.000000000000000000e+02
3.800000000000000000e+01, 4.091282000000000153e+03, 4.254359000000000378e+03, 4.126667000000000371e+03, 4.149230999999999767e+03, 4.421537999999999556e+03, 0.000000000000000000e+00, 0.000000000000000000e+00, 1.000000000000000000e+02
3.900000000000000000e+01, 4.079487000000000080e+03, 4.246154000000000451e+03, 4.119487000000000080e+03, 4.138462000000000444e+03, 4.415385000000000218e+03, 0.000000000000000000e+00, 0.000000000000000000e+00, 1.000000000000000000e+02
4.000000000000000000e+01, 4.085128000000000156e+03, 4.244103000000000065e+03, 4.128717999999999847e+03, 4.153332999999999629e+03, 4.422564000000000306e+03, 0.000000000000000000e+00, 0.000000000000000000e+00, 1.000000000000000000e+02
4.100000000000000000e+01, 4.089231000000000222e+03, 4.242051000000000386e+03, 4.124614999999999782e+03, 4.155385000000000218e+03, 4.421537999999999556e+03, 0.000000000000000000e+00, 0.000000000000000000e+00, 1.000000000000000000e+02
4.200000000000000000e+01, 4.085128000000000156e+03, 4.246154000000000451e+03, 4.111282000000000153e+03, 4.145127999999999702e+03, 4.412820999999999913e+03, 0.000000000000000000e+00, 0.000000000000000000e+00, 1.000000000000000000e+02
4.300000000000000000e+01, 4.083590000000000146e+03, 4.258462000000000444e+03, 4.115385000000000218e+03, 4.152820999999999913e+03, 4.407692000000000007e+03, 0.000000000000000000e+00, 0.000000000000000000e+00, 1.000000000000000000e+02
4.400000000000000000e+01, 4.081025999999999840e+03, 4.256409999999999854e+03, 4.123077000000000226e+03, 4.150769000000000233e+03, 4.402051000000000386e+03, 0.000000000000000000e+00, 0.000000000000000000e+00, 1.000000000000000000e+02
4.500000000000000000e+01, 4.081538000000000011e+03, 4.248204999999999927e+03, 4.116409999999999854e+03, 4.133332999999999629e+03, 4.398462000000000444e+03, 0.000000000000000000e+00, 0.000000000000000000e+00, 1.000000000000000000e+02
4.600000000000000000e+01, 4.076409999999999854e+03, 4.248204999999999927e+03, 4.110256000000000313e+03, 4.137435999999999694e+03, 4.391795000000000073e+03, 0.000000000000000000e+00, 0.000000000000000000e+00, 1.000000000000000000e+02
4.700000000000000000e+01, 4.070255999999999858e+03, 4.250256000000000313e+03, 4.119487000000000080e+03, 4.154359000000000378e+03, 4.385640999999999622e+03, 0.000000000000000000e+00, 0.000000000000000000e+00, 1.000000000000000000e+02
4.800000000000000000e+01, 4.076409999999999854e+03, 4.254359000000000378e+03, 4.129230999999999767e+03, 4.154872000000000298e+03, 4.386154000000000451e+03, 0.000000000000000000e+00, 0.000000000000000000e+00, 1.000000000000000000e+02
4.900000000000000000e+01, 4.079487000000000080e+03, 4.262564000000000306e+03, 4.129230999999999767e+03, 4.144614999999999782e+03, 4.385127999999999702e+03, 1.000000000000000000e+00, 1.000000000000000000e+00, 1.000000000000000000e+02
5.000000000000000000e+01, 4.085641000000000076e+03, 4.258462000000000444e+03, 4.124103000000000065e+03, 4.145127999999999702e+03, 4.387692000000000007e+03, 1.000000000000000000e+00, 1.000000000000000000e+00, 1.000000000000000000e+02
5.100000000000000000e+01, 4.109230999999999767e+03, 4.254359000000000378e+03, 4.120000000000000000e+03, 4.152307999999999993e+03, 4.401025999999999840e+03, 1.000000000000000000e+00, 1.000000000000000000e+00, 1.000000000000000000e+02
5.200000000000000000e+01, 4.132307999999999993e+03, 4.256409999999999854e+03, 4.126154000000000451e+03, 4.156922999999999774e+03, 4.420512999999999920e+03, 1.000000000000000000e+00, 1.000000000000000000e+00, 1.000000000000000000e+02
5.300000000000000000e+01, 4.145640999999999622e+03, 4.250256000000000313e+03, 4.131795000000000073e+03, 4.159487000000000080e+03, 4.440512999999999920e+03, 1.000000000000000000e+00, 1.000000000000000000e+00, 1.000000000000000000e+02
5.400000000000000000e+01, 4.164614999999999782e+03, 4.240000000000000000e+03, 4.124103000000000065e+03, 4.166154000000000451e+03, 4.456409999999999854e+03, 1.000000000000000000e+00, 1.000000000000000000e+00, 1.000000000000000000e+02
5.500000000000000000e+01, 4.184614999999999782e+03, 4.246154000000000451e+03, 4.125640999999999622e+03, 4.172820999999999913e+03, 4.464103000000000065e+03, 1.000000000000000000e+00, 1.000000000000000000e+00, 1.000000000000000000e+02
5.600000000000000000e+01, 4.191795000000000073e+03, 4.264614999999999782e+03, 4.141025999999999840e+03, 4.173845999999999549e+03, 4.467179000000000087e+03, 1.000000000000000000e+00, 1.000000000000000000e+00, 1.000000000000000000e+02
5.700000000000000000e+01, 4.195385000000000218e+03, 4.262564000000000306e+03, 4.142564000000000306e+03, 4.170769000000000233e+03, 4.476922999999999774e+03, 1.000000000000000000e+00, 1.000000000000000000e+00, 1.000000000000000000e+02
5.800000000000000000e+01, 4.198462000000000444e+03, 4.258462000000000444e+03, 4.136922999999999774e+03, 4.168204999999999927e+03, 4.484614999999999782e+03, 1.000000000000000000e+00, 1.000000000000000000e+00, 1.000000000000000000e+02
5.900000000000000000e+01, 4.191282000000000153e+03, 4.266667000000000371e+03, 4.143077000000000226e+03, 4.175896999999999935e+03, 4.477948999999999614e+03, 1.000000000000000000e+00, 1.000000000000000000e+00, 1.000000000000000000e+02
6.000000000000000000e+01, 4.173332999999999629e+03, 4.266667000000000371e+03, 4.141537999999999556e+03, 4.177435999999999694e+03, 4.461537999999999556e+03, 1.000000000000000000e+00, 1.000000000000000000e+00, 1.000000000000000000e+02
6.100000000000000000e+01, 4.166154000000000451e+03, 4.260512999999999920e+03, 4.135385000000000218e+03, 4.165127999999999702e+03, 4.450769000000000233e+03, 1.000000000000000000e+00, 1.000000000000000000e+00, 1.000000000000000000e+02
6.200000000000000000e+01, 4.176409999999999854e+03, 4.266667000000000371e+03, 4.147692000000000007e+03, 4.170769000000000233e+03, 4.454872000000000298e+03, 1.000000000000000000e+00, 1.000000000000000000e+00, 1.000000000000000000e+02
