COUNTER, AF3, T7, Pz, T8, AF4, MARKERS['YES','NO'], TICK, ContactQuality
5.100000000000000000e+01, 5.030769000000000233e+03, 4.340512999999999920e+03, 4.231282000000000153e+03, 4.224103000000000065e+03, 5.360512999999999920e+03, 1.000000000000000000e+00, 0.000000000000000000e+00, 1.000000000000000000e+02
5.200000000000000000e+01, 5.028204999999999927e+03, 4.334359000000000378e+03, 4.232820999999999913e+03, 4.231795000000000073e+03, 5.354872000000000298e+03, 1.000000000000000000e+00, 0.000000000000000000e+00, 1.000000000000000000e+02
5.300000000000000000e+01, 5.009743999999999687e+03, 4.340512999999999920e+03, 4.229743999999999687e+03, 4.240000000000000000e+03, 5.355896999999999935e+03, 1.000000000000000000e+00, 0.000000000000000000e+00, 1.000000000000000000e+02
5.400000000000000000e+01, 4.980000000000000000e+03, 4.342564000000000306e+03, 4.215896999999999935e+03, 4.217948999999999614e+03, 5.347179000000000087e+03, 1.000000000000000000e+00, 0.000000000000000000e+00, 1.000000000000000000e+02
5.500000000000000000e+01, 4.958974000000000160e+03, 4.332307999999999993e+03, 4.211282000000000153e+03, 4.205127999999999702e+03, 5.324103000000000065e+03, 1.000000000000000000e+00, 0.000000000000000000e+00, 1.000000000000000000e+02
5.600000000000000000e+01, 4.951795000000000073e+03, 4.330256000000000313e+03, 4.217948999999999614e+03, 4.218462000000000444e+03, 5.316409999999999854e+03, 1.000000000000000000e+00, 0.000000000000000000e+00, 1.000000000000000000e+02
5.700000000000000000e+01, 4.933332999999999629e+03, 4.344614999999999782e+03, 4.207692000000000007e+03, 4.214359000000000378e+03, 5.313845999999999549e+03, 1.000000000000000000e+00, 0.000000000000000000e+00, 1.000000000000000000e+02
5.800000000000000000e+01, 4.909743999999999687e+03, 4.340512999999999920e+03, 4.190769000000000233e+03, 4.208204999999999927e+03, 5.302564000000000306e+03, 1.000000000000000000e+00, 0.000000000000000000e+00, 1.000000000000000000e+02
5.900000000000000000e+01, 4.906154000000000451e+03, 4.324103000000000065e+03, 4.195896999999999935e+03, 4.228717999999999847e+03, 5.300000000000000000e+03, 1.000000000000000000e+00, 0.000000000000000000e+00, 1.000000000000000000e+02
6.000000000000000000e+01, 4.901537999999999556e+03, 4.332307999999999993e+03, 4.212307999999999993e+03, 4.242564000000000306e+03, 5.298974000000000160e+03, 1.000000000000000000e+00, 0.000000000000000000e+00, 1.000000000000000000e+02
6.100000000000000000e+01, 4.879487000000000080e+03, 4.336409999999999854e+03, 4.215385000000000218e+03, 4.234872000000000298e+03, 5.275385000000000218e+03, 1.000000000000000000e+00, 0.000000000000000000e+00, 1.000000000000000000e+02
6.200000000000000000e+01, 4.863590000000000146e+03, 4.326154000000000451e+03, 4.218974000000000160e+03, 4.228204999999999927e+03, 5.255896999999999935e+03, 1.000000000000000000e+00, 0.000000000000000000e+00, 1.000000000000000000e+02
6.300000000000000000e+01, 4.868717999999999847e+03, 4.330256000000000313e+03, 4.231282000000000153e+03, 4.234872000000000298e+03, 5.267179000000000087e+03, 1.000000000000000000e+00, 0.000000000000000000e+00, 1.000000000000000000e+02
6.400000000000000000e+01, 4.869230999999999767e+03, 4.336409999999999854e+03, 4.234872000000000298e+03, 4.237948999999999614e+03, 5.269230999999999767e+03, 1.000000000000000000e+00, 0.000000000000000000e+00, 1.000000000000000000e+02
6.500000000000000000e+01, 4.859487000000000080e+03, 4.344614999999999782e+03, 4.228204999999999927e+03, 4.231795000000000073e+03, 5.251282000000000153e+03, 1.000000000000000000e+00, 0.000000000000000000e+00, 1.000000000000000000e+02
6.600000000000000000e+01, 4.862564000000000306e+03, 4.350769000000000233e+03, 4.220512999999999920e+03, 4.231282000000000153e+03, 5.248717999999999847e+03, 1.000000000000000000e+00, 0.000000000000000000e+00, 1.000000000000000000e+02
6.700000000000000000e+01, 4.857948999999999614e+03, 4.338462000000000444e+03, 4.206154000000000451e+03, 4.227692000000000007e+03, 5.245640999999999622e+03, 1.000000000000000000e+00, 0.000000000000000000e+00, 1.000000000000000000e+02
6.800000000000000000e+01, 4.832820999999999913e+03, 4.324103000000000065e+03, 4.190256000000000313e+03, 4.215385000000000218e+03, 5.222564000000000306e+03, 1.000000000000000000e+00, 0.000000000000000000e+00, 1.000000000000000000e+02
6.900000000000000000e+01, 4.820512999999999920e+03, 4.324103000000000065e+03, 4.184614999999999782e+03, 4.211795000000000073e+03, 5.207692000000000007e+03, 1.000000000000000000e+00, 0.000000000000000000e+00, 1.000000000000000000e+02
7.000000000000000000e+01, 4.824614999999999782e+03, 4.315896999999999935e+03, 4.183590000000000146e+03, 4.214872000000000298e+03, 5.211282000000000153e+03, 1.000000000000000000e+00, 0.000000000000000000e+00, 1.000000000000000000e+02
7.100000000000000000e+01, 4.818974000000000160e+03, 4.317948999999999614e+03, 4.190256000000000313e+03, 4.216409999999999854e+03, 5.221537999999999556e+03, 1.000000000000000000e+00, 0.000000000000000000e+00, 1.000000000000000000e+02
7.200000000000000000e+01, 4.813332999999999629e+03, 4.336409999999999854e+03, 4.208204999999999927e+03, 4.235385000000000218e+03, 5.226667000000000371e+03, 1.000000000000000000e+00, 0.000000000000000000e+00, 1.000000000000000000e+02
7.300000000000000000e+01, 4.814359000000000378e+03, 4.342564000000000306e+03, 4.223590000000000146e+03, 4.253845999999999549e+03, 5.214359000000000378e+03, 1.000000000000000000e+00, 0.000000000000000000e+00, 1.000000000000000000e+02
7.400000000000000000e+01, 4.799487000000000080e+03, 4.332307999999999993e+03, 4.225640999999999622e+03, 4.240512999999999920e+03, 5.190769000000000233e+03, 1.000000000000000000e+00, 0.000000000000000000e+00, 1.000000000000000000e+02
7.500000000000000000e+01, 4.787692000000000007e+03, 4.332307999999999993e+03, 4.223077000000000226e+03, 4.226154000000000451e+03, 5.176922999999999774e+03, 1.000000000000000000e+00, 0.000000000000000000e+00, 1.000000000000000000e+02
7.600000000000000000e+01, 4.797948999999999614e+03, 4.336409999999999854e+03, 4.232820999999999913e+03, 4.232307999999999993e+03, 5.184614999999999782e+03, 1.000000000000000000e+00, 0.000000000000000000e+00, 1.000000000000000000e+02
7.700000000000000000e+01, 4.802564000000000306e+03, 4.328204999999999927e+03, 4.239487000000000080e+03, 4.234359000000000378e+03, 5.192820999999999913e+03, 1.000000000000000000e+00, 0.000000000000000000e+00, 1.000000000000000000e+02
7.800000000000000000e+01, 4.797435999999999694e+03, 4.320000000000000000e+03, 4.225640999999999622e+03, 4.233845999999999549e+03, 5.186154000000000451e+03, 1.000000000000000000e+00, 0.000000000000000000e+00, 1.000000000000000000e+02
7.900000000000000000e+01, 4.784103000000000065e+03, 4.315896999999999935e+03, 4.206667000000000371e+03, 4.233845999999999549e+03, 5.169230999999999767e+03, 1.000000000000000000e+00, 0.000000000000000000e+00, 1.000000000000000000e+02
8.000000000000000000e+01, 4.764103000000000065e+03, 4.311795000000000073e+03, 4.195896999999999935e+03, 4.227179000000000087e+03, 5.157435999999999694e+03, 1.000000000000000000e+00, 0.000000000000000000e+00, 1.000000000000000000e+02
8.100000000000000000e+01, 4.764614999999999782e+03, 4.301537999999999556e+03, 4.186667000000000371e+03, 4.228717999999999847e+03, 5.160512999999999920e+03, 1.000000000000000000e+00, 0.000000000000000000e+00, 1.000000000000000000e+02
8.200000000000000000e+01, 4.770769000000000233e+03, 4.297435999999999694e+03, 4.176922999999999774e+03, 4.229230999999999767e+03, 5.154359000000000378e+03, 1.000000000000000000e+00, 0.000000000000000000e+00, 1.000000000000000000e+02
8.300000000000000000e+01, 4.746667000000000371e+03, 4.299487000000000080e+03, 4.170769000000000233e+03, 4.209743999999999687e+03, 5.128717999999999847e+03, 1.000000000000000000e+00, 0.000000000000000000e+00, 1.000000000000000000e+02
8.400000000000000000e+01, 4.724614999999999782e+03, 4.287179000000000087e+03, 4.178462000000000444e+03, 4.208717999999999847e+03, 5.113845999999999549e+03, 1.000000000000000000e+00, 0.000000000000000000e+00, 1.000000000000000000e+02
8.500000000000000000e+01, 4.731282000000000153e+03, 4.283077000000000226e+03, 4.196409999999999854e+03, 4.224614999999999782e+03, 5.108717999999999847e+03, 1.000000000000000000e+00, 0.000000000000000000e+00, 1.000000000000000000e+02
8.600000000000000000e+01, 4.735385000000000218e+03, 4.291282000000000153e+03, 4.204614999999999782e+03, 4.222564000000000306e+03, 5.102051000000000386e+03, 1.000000000000000000e+00, 0.000000000000000000e+00, 1.000000000000000000e+02
8.700000000000000000e+01, 4.729230999999999767e+03, 4.297435999999999694e+03, 4.203077000000000226e+03, 4.224103000000000065e+03, 5.111282000000000153e+03, 1.000000000000000000e+00, 0.000000000000000000e+00, 1.000000000000000000e+02
8.800000000000000000e+01, 4.729230999999999767e+03, 4.293332999999999629e+03, 4.209230999999999767e+03, 4.232820999999999913e+03, 5.126154000000000451e+03, 1.000000000000000000e+00, 0.000000000000000000e+00, 1.000000000000000000e+02
8.900000000000000000e+01, 4.729743999999999687e+03, 4.293332999999999629e+03, 4.222051000000000386e+03, 4.225127999999999702e+03, 5.126667000000000371e+03, 1.000000000000000000e+00, 0.000000000000000000e+00, 1.000000000000000000e+02
9.000000000000000000e+01, 4.723590000000000146e+03, 4.299487000000000080e+03, 4.216409999999999854e+03, 4.217435999999999694e+03, 5.112307999999999993e+03, 1.000000000000000000e+00, 0.000000000000000000e+00, 1.000000000000000000e+02
9.100000000000000000e+01, 4.720512999999999920e+03, 4.293332999999999629e+03, 4.198462000000000444e+03, 4.222564000000000306e+03, 5.103590000000000146e+03, 1.000000000000000000e+00, 0.000000000000000000e+00, 1.000000000000000000e+02
9.200000000000000000e+01, 4.717435999999999694e+03, 4.281025999999999840e+03, 4.200000000000000000e+03, 4.224103000000000065e+03, 5.094872000000000298e+03, 1.000000000000000000e+00, 0.000000000000000000e+00, 1.000000000000000000e+02
9.300000000000000000e+01, 4.701025999999999840e+03, 4.278974000000000160e+03, 4.205127999999999702e+03, 4.213845999999999549e+03, 5.066154000000000451e+03, 1.000000000000000000e+00, 0.000000000000000000e+00, 1.000000000000000000e+02
9.400000000000000000e+01, 4.684103000000000065e+03, 4.278974000000000160e+03, 4.190769000000000233e+03, 4.203590000000000146e+03, 5.050256000000000313e+03, 1.000000000000000000e+00, 0.000000000000000000e+00, 1.000000000000000000e+02
9.500000000000000000e+01, 4.673845999999999549e+03, 4.266667000000000371e+03, 4.179487000000000080e+03, 4.196409999999999854e+03, 5.058462000000000444e+03, 1.000000000000000000e+00, 0.000000000000000000e+00, 1.000000000000000000e+02
9.600000000000000000e+01, 4.667692000000000007e+03, 4.256409999999999854e+03, 4.183077000000000226e+03, 4.195896999999999935e+03, 5.062051000000000386e+03, 1.000000000000000000e+00, 0.000000000000000000e+00, 1.000000000000000000e+02
9.700000000000000000e+01, 4.657435999999999694e+03, 4.252307999999999993e+03, 4.182051000000000386e+03, 4.204103000000000065e+03, 5.047179000000000087e+03, 1.000000000000000000e+00, 0.000000000000000000e+00, 1.000000000000000000e+02
9.800000000000000000e+01, 4.644103000000000065e+03, 4.258462000000000444e+03, 4.184614999999999782e+03, 4.214872000000000298e+03, 5.033332999999999629e+03, 1.000000000000000000e+00, 0.000000000000000000e+00, 1.000000000000000000e+02
9.900000000000000000e+01, 4.641025999999999840e+03, 4.268717999999999847e+03, 4.198974000000000160e+03, 4.220512999999999920e+03, 5.037948999999999614e+03, 1.000000000000000000e+00, 0.000000000000000000e+00, 1.000000000000000000e+02
1.000000000000000000e+02, 4.648717999999999847e+03, 4.270769000000000233e+03, 4.201025999999999840e+03, 4.224614999999999782e+03, 5.043077000000000226e+03, 1.000000000000000000e+00, 0.000000000000000000e+00, 1.000000000000000000e+02
1.010000000000000000e+02, 4.662051000000000386e+03, 4.272820999999999913e+03, 4.204103000000000065e+03, 4.232820999999999913e+03, 5.046154000000000451e+03, 1.000000000000000000e+00, 0.000000000000000000e+00, 1.000000000000000000e+02
1.020000000000000000e+02, 4.673845999999999549e+03, 4.278974000000000160e+03, 4.219487000000000080e+03, 4.233845999999999549e+03, 5.050769000000000233e+03, 1.000000000000000000e+00, 0.000000000000000000e+00, 1.000000000000000000e+02
1.030000000000000000e+02, 4.667179000000000087e+03, 4.276922999999999774e+03, 4.222564000000000306e+03, 4.235385000000000218e+03, 5.040000000000000000e+03, 1.000000000000000000e+00, 0.000000000000000000e+00, 1.000000000000000000e+02
1.040000000000000000e+02, 4.645127999999999702e+03, 4.262564000000000306e+03, 4.208204999999999927e+03, 4.237435999999999694e+03, 5.016922999999999774e+03, 1.000000000000000000e+00, 0.000000000000000000e+00, 1.000000000000000000e+02
1.050000000000000000e+02, 4.635385000000000218e+03, 4.256409999999999854e+03, 4.194872000000000298e+03, 4.222051000000000386e+03, 5.003590000000000146e+03, 1.000000000000000000e+00, 0.000000000000000000e+00, 1.000000000000000000e+02
1.060000000000000000e+02, 4.636409999999999854e+03, 4.254359000000000378e+03, 4.184103000000000065e+03, 4.213845999999999549e+03, 5.001025999999999840e+03, 1.000000000000000000e+00, 0.000000000000000000e+00, 1.000000000000000000e+02
1.070000000000000000e+02, 4.616409999999999854e+03, 4.240000000000000000e+03, 4.170256000000000313e+03, 4.215385000000000218e+03, 4.987179000000000087e+03, 1.000000000000000000e+00, 0.000000000000000000e+00, 1.000000000000000000e+02
1.080000000000000000e+02, 4.596409999999999854e+03, 4.219487000000000080e+03, 4.161025999999999840e+03, 4.196409999999999854e+03, 4.966667000000000371e+03, 1.000000000000000000e+00, 0.000000000000000000e+00, 1.000000000000000000e+02
1.090000000000000000e+02, 4.598974000000000160e+03, 4.221537999999999556e+03, 4.165127999999999702e+03, 4.189230999999999767e+03, 4.961025999999999840e+03, 1.000000000000000000e+00, 0.000000000000000000e+00, 1.000000000000000000e+02
1.100000000000000000e+02, 4.590769000000000233e+03, 4.242051000000000386e+03, 4.171282000000000153e+03, 4.202564000000000306e+03, 4.960000000000000000e+03, 1.000000000000000000e+00, 0.000000000000000000e+00, 1.000000000000000000e+02
1.110000000000000000e+02, 4.575385000000000218e+03, 4.229743999999999687e+03, 4.163590000000000146e+03, 4.197435999999999694e+03, 4.952307999999999993e+03, 1.000000000000000000e+00, 0.000000000000000000e+00, 1.000000000000000000e+02
1.120000000000000000e+02, 4.592307999999999993e+03, 4.213332999999999629e+03, 4.167692000000000007e+03, 4.195385000000000218e+03, 4.965127999999999702e+03, 1.000000000000000000e+00, 0.000000000000000000e+00, 1.000000000000000000e+02
1.130000000000000000e+02, 4.616409999999999854e+03, 4.225640999999999622e+03, 4.198974000000000160e+03, 4.216922999999999774e+03, 4.994359000000000378e+03, 1.000000000000000000e+00, 0.000000000000000000e+00, 1.000000000000000000e+02
1.140000000000000000e+02, 4.615385000000000218e+03, 4.233845999999999549e+03, 4.217948999999999614e+03, 4.224614999999999782e+03, 5.003077000000000226e+03, 1.000000000000000000e+00, 0.000000000000000000e+00, 1.000000000000000000e+02
1.150000000000000000e+02, 4.616409999999999854e+03, 4.231795000000000073e+03, 4.215896999999999935e+03, 4.215896999999999935e+03, 4.988717999999999847e+03, 1.000000000000000000e+00, 0.000000000000000000e+00, 1.000000000000000000e+02
1.160000000000000000e+02, 4.639487000000000080e+03, 4.229743999999999687e+03, 4.216922999999999774e+03, 4.221537999999999556e+03, 4.982051000000000386e+03, 1.000000000000000000e+00, 0.000000000000000000e+00, 1.000000000000000000e+02
1.170000000000000000e+02, 4.665127999999999702e+03, 4.235896999999999935e+03, 4.213332999999999629e+03, 4.231282000000000153e+03, 4.994359000000000378e+03, 1.000000000000000000e+00, 0.000000000000000000e+00, 1.000000000000000000e+02
1.180000000000000000e+02, 4.683077000000000226e+03, 4.235896999999999935e+03, 4.194872000000000298e+03, 4.225640999999999622e+03, 5.007692000000000007e+03, 1.000000000000000000e+00, 0.000000000000000000e+00, 1.000000000000000000e+02
1.190000000000000000e+02, 4.706154000000000451e+03, 4.225640999999999622e+03, 4.177435999999999694e+03, 4.215896999999999935e+03, 5.021025999999999840e+03, 1.000000000000000000e+00, 0.000000000000000000e+00, 1.000000000000000000e+02
1.200000000000000000e+02, 4.746154000000000451e+03, 4.219487000000000080e+03, 4.169230999999999767e+03, 4.215385000000000218e+03, 5.047179000000000087e+03, 1.000000000000000000e+00, 0.000000000000000000e+00, 1.000000000000000000e+02
1.210000000000000000e+02, 4.786154000000000451e+03, 4.225640999999999622e+03, 4.173332999999999629e+03, 4.217435999999999694e+03, 5.078462000000000444e+03, 1.000000000000000000e+00, 0.000000000000000000e+00, 1.000000000000000000e+02
1.220000000000000000e+02, 4.812307999999999993e+03, 4.227692000000000007e+03, 4.193332999999999629e+03, 4.214359000000000378e+03, 5.101537999999999556e+03, 1.000000000000000000e+00, 0.000000000000000000e+00, 1.000000000000000000e+02
1.230000000000000000e+02, 4.829743999999999687e+03, 4.246154000000000451e+03, 4.208717999999999847e+03, 4.214359000000000378e+03, 5.113332999999999629e+03, 1.000000000000000000e+00, 0.000000000000000000e+00, 1.000000000000000000e+02
1.240000000000000000e+02, 4.829230999999999767e+03, 4.268717999999999847e+03, 4.209230999999999767e+03, 4.220000000000000000e+03, 5.118462000000000444e+03, 1.000000000000000000e+00, 0.000000000000000000e+00, 1.000000000000000000e+02
1.250000000000000000e+02, 4.795896999999999935e+03, 4.256409999999999854e+03, 4.205127999999999702e+03, 4.220000000000000000e+03, 5.106154000000000451e+03, 1.000000000000000000e+00, 0.000000000000000000e+00, 1.000000000000000000e+02
1.260000000000000000e+02, 4.753332999999999629e+03, 4.240000000000000000e+03, 4.201025999999999840e+03, 4.215896999999999935e+03, 5.071795000000000073e+03, 1.000000000000000000e+00, 0.000000000000000000e+00, 1.000000000000000000e+02
1.270000000000000000e+02, 4.730769000000000233e+03, 4.248204999999999927e+03, 4.198462000000000444e+03, 4.217435999999999694e+03, 5.046667000000000371e+03, 1.000000000000000000e+00, 0.000000000000000000e+00, 1.000000000000000000e+02
0.000000000000000000e+00, 4.711282000000000153e+03, 4.252307999999999993e+03, 4.196409999999999854e+03, 4.228204999999999927e+03, 5.037948999999999614e+03, 1.000000000000000000e+00, 0.000000000000000000e+00, 1.000000000000000000e+02
1.000000000000000000e+00, 4.686154000000000451e+03, 4.252307999999999993e+03, 4.197435999999999694e+03, 4.236409999999999854e+03, 5.024614999999999782e+03, 1.000000000000000000e+00, 0.000000000000000000e+00, 1.000000000000000000e+02
2.000000000000000000e+00, 4.666154000000000451e+03, 4.262564000000000306e+03, 4.201537999999999556e+03, 4.234872000000000298e+03, 5.001025999999999840e+03, 1.000000000000000000e+00, 0.000000000000000000e+00, 1.000000000000000000e+02
3.000000000000000000e+00, 4.640512999999999920e+03, 4.264614999999999782e+03, 4.200512999999999920e+03, 4.232820999999999913e+03, 4.981025999999999840e+03, 1.000000000000000000e+00, 0.000000000000000000e+00, 1.000000000000000000e+02
4.000000000000000000e+00, 4.608204999999999927e+03, 4.260512999999999920e+03, 4.194359000000000378e+03, 4.235385000000000218e+03, 4.972307999999999993e+03, 1.000000000000000000e+00, 0.000000000000000000e+00, 1.000000000000000000e+02
5.000000000000000000e+00, 4.582051000000000386e+03, 4.252307999999999993e+03, 4.184614999999999782e+03, 4.233845999999999549e+03, 4.950769000000000233e+03, 1.000000000000000000e+00, 0.000000000000000000e+00, 1.000000000000000000e+02
6.000000000000000000e+00, 4.562051000000000386e+03, 4.248204999999999927e+03, 4.181025999999999840e+03, 4.234359000000000378e+03, 4.917948999999999614e+03, 1.000000000000000000e+00, 0.000000000000000000e+00, 1.000000000000000000e+02
7.000000000000000000e+00, 4.541537999999999556e+03, 4.244103000000000065e+03, 4.191795000000000073e+03, 4.231282000000000153e+03, 4.901025999999999840e+03, 1.000000000000000000e+00, 0.000000000000000000e+00, 1.000000000000000000e+02
8.000000000000000000e+00, 4.521537999999999556e+03, 4.246154000000000451e+03, 4.200000000000000000e+03, 4.217435999999999694e+03, 4.891795000000000073e+03, 1.000000000000000000e+00, 0.000000000000000000e+00, 1.000000000000000000e+02
9.000000000000000000e+00, 4.503077000000000226e+03, 4.250256000000000313e+03, 4.190769000000000233e+03, 4.209743999999999687e+03, 4.870256000000000313e+03, 1.000000000000000000e+00, 0.000000000000000000e+00, 1.000000000000000000e+02
1.000000000000000000e+01, 4.487692000000000007e+03, 4.250256000000000313e+03, 4.188204999999999927e+03, 4.213332999999999629e+03, 4.851282000000000153e+03, 1.000000000000000000e+00, 0.000000000000000000e+00, 1.000000000000000000e+02
1.100000000000000000e+01, 4.482564000000000306e+03, 4.252307999999999993e+03, 4.204614999999999782e+03, 4.217435999999999694e+03, 4.862051000000000386e+03, 1.000000000000000000e+00, 0.000000000000000000e+00, 1.000000000000000000e+02
1.200000000000000000e+01, 4.480000000000000000e+03, 4.254359000000000378e+03, 4.212307999999999993e+03, 4.216922999999999774e+03, 4.873845999999999549e+03, 1.000000000000000000e+00, 0.000000000000000000e+00, 1.000000000000000000e+02
1.300000000000000000e+01, 4.466154000000000451e+03, 4.244103000000000065e+03, 4.202051000000000386e+03, 4.214872000000000298e+03, 4.849230999999999767e+03, 1.000000000000000000e+00, 0.000000000000000000e+00, 1.000000000000000000e+02
1.400000000000000000e+01, 4.446154000000000451e+03, 4.250256000000000313e+03, 4.201537999999999556e+03, 4.218462000000000444e+03, 4.826154000000000451e+03, 1.000000000000000000e+00, 0.000000000000000000e+00, 1.000000000000000000e+02
1.500000000000000000e+01, 4.418974000000000160e+03, 4.262564000000000306e+03, 4.197948999999999614e+03, 4.224103000000000065e+03, 4.817435999999999694e+03, 1.000000000000000000e+00, 0.000000000000000000e+00, 1.000000000000000000e+02
1.600000000000000000e+01, 4.395385000000000218e+03, 4.242051000000000386e+03, 4.177948999999999614e+03, 4.221537999999999556e+03, 4.807179000000000087e+03, 1.000000000000000000e+00, 0.000000000000000000e+00, 1.000000000000000000e+02
1.700000000000000000e+01, 4.400000000000000000e+03, 4.225640999999999622e+03, 4.165127999999999702e+03, 4.216409999999999854e+03, 4.802564000000000306e+03, 1.000000000000000000e+00, 0.000000000000000000e+00, 1.000000000000000000e+02
1.800000000000000000e+01, 4.409230999999999767e+03, 4.240000000000000000e+03, 4.168204999999999927e+03, 4.219487000000000080e+03, 4.793845999999999549e+03, 1.000000000000000000e+00, 0.000000000000000000e+00, 1.000000000000000000e+02
1.900000000000000000e+01, 4.392820999999999913e+03, 4.242051000000000386e+03, 4.174359000000000378e+03, 4.217435999999999694e+03, 4.768204999999999927e+03, 1.000000000000000000e+00, 0.000000000000000000e+00, 1.000000000000000000e+02
2.000000000000000000e+01, 4.373332999999999629e+03, 4.227692000000000007e+03, 4.180000000000000000e+03, 4.207692000000000007e+03, 4.749743999999999687e+03, 1.000000000000000000e+00, 0.000000000000000000e+00, 1.000000000000000000e+02
2.100000000000000000e+01, 4.369230999999999767e+03, 4.229743999999999687e+03, 4.186667000000000371e+03, 4.204103000000000065e+03, 4.755896999999999935e+03, 1.000000000000000000e+00, 0.000000000000000000e+00, 1.000000000000000000e+02
2.200000000000000000e+01, 4.366667000000000371e+03, 4.233845999999999549e+03, 4.187692000000000007e+03, 4.203077000000000226e+03, 4.759487000000000080e+03, 1.000000000000000000e+00, 0.000000000000000000e+00, 1.000000000000000000e+02
2.300000000000000000e+01, 4.362564000000000306e+03, 4.231795000000000073e+03, 4.182051000000000386e+03, 4.197435999999999694e+03, 4.745640999999999622e+03, 1.000000000000000000e+00, 0.000000000000000000e+00, 1.000000000000000000e+02
2.400000000000000000e+01, 4.364614999999999782e+03, 4.229743999999999687e+03, 4.186154000000000451e+03, 4.197435999999999694e+03, 4.742051000000000386e+03, 1.000000000000000000e+00, 0.000000000000000000e+00, 1.000000000000000000e+02
2.500000000000000000e+01, 4.367692000000000007e+03, 4.231795000000000073e+03, 4.192307999999999993e+03, 4.199487000000000080e+03, 4.741537999999999556e+03, 1.000000000000000000e+00, 0.000000000000000000e+00, 1.000000000000000000e+02
2.600000000000000000e+01, 4.362564000000000306e+03, 4.235896999999999935e+03, 4.183077000000000226e+03, 4.195896999999999935e+03, 4.719487000000000080e+03, 1.000000000000000000e+00, 0.000000000000000000e+00, 1.000000000000000000e+02
2.700000000000000000e+01, 4.355385000000000218e+03, 4.246154000000000451e+03, 4.176409999999999854e+03, 4.197435999999999694e+03, 4.707179000000000087e+03, 1.000000000000000000e+00, 0.000000000000000000e+00, 1.000000000000000000e+02
2.800000000000000000e+01, 4.354872000000000298e+03, 4.250256000000000313e+03, 4.183077000000000226e+03, 4.206154000000000451e+03, 4.723590000000000146e+03, 1.000000000000000000e+00, 0.000000000000000000e+00, 1.000000000000000000e+02
2.900000000000000000e+01, 4.354872000000000298e+03, 4.240000000000000000e+03, 4.177948999999999614e+03, 4.204614999999999782e+03, 4.730256000000000313e+03, 1.000000000000000000e+00, 0.000000000000000000e+00, 1.000000000000000000e+02
3.000000000000000000e+01, 4.346154000000000451e+03, 4.229743999999999687e+03, 4.162564000000000306e+03, 4.191282000000000153e+03, 4.707692000000000007e+03, 1.000000000000000000e+00, 0.000000000000000000e+00, 1.000000000000000000e+02
3.100000000000000000e+01, 4.337948999999999614e+03, 4.227692000000000007e+03, 4.162564000000000306e+03, 4.178462000000000444e+03, 4.687179000000000087e+03, 1.000000000000000000e+00, 0.000000000000000000e+00, 1.000000000000000000e+02
3.200000000000000000e+01, 4.349743999999999687e+03, 4.231795000000000073e+03, 4.178462000000000444e+03, 4.186154000000000451e+03, 4.686667000000000371e+03, 1.000000000000000000e+00, 0.000000000000000000e+00, 1.000000000000000000e+02
3.300000000000000000e+01, 4.362051000000000386e+03, 4.235896999999999935e+03, 4.187692000000000007e+03, 4.206154000000000451e+03, 4.683077000000000226e+03, 1.000000000000000000e+00, 0.000000000000000000e+00, 1.000000000000000000e+02
3.400000000000000000e+01, 4.351282000000000153e+03, 4.231795000000000073e+03, 4.185640999999999622e+03, 4.209230999999999767e+03, 4.674872000000000298e+03, 1.000000000000000000e+00, 0.000000000000000000e+00, 1.000000000000000000e+02
3.500000000000000000e+01, 4.332820999999999913e+03, 4.231795000000000073e+03, 4.192307999999999993e+03, 4.194872000000000298e+03, 4.675385000000000218e+03, 1.000000000000000000e+00, 0.000000000000000000e+00, 1.000000000000000000e+02
3.600000000000000000e+01, 4.332820999999999913e+03, 4.242051000000000386e+03, 4.205640999999999622e+03, 4.195385000000000218e+03, 4.676409999999999854e+03, 1.000000000000000000e+00, 0.000000000000000000e+00, 1.000000000000000000e+02
3.700000000000000000e+01, 4.331282000000000153e+03, 4.240000000000000000e+03, 4.192820999999999913e+03, 4.201537999999999556e+03, 4.669743999999999687e+03, 1.000000000000000000e+00, 0.000000000000000000e+00, 1.000000000000000000e+02
3.800000000000000000e+01, 4.316922999999999774e+03, 4.227692000000000007e+03, 4.167179000000000087e+03, 4.188717999999999847e+03, 4.658974000000000160e+03, 1.000000000000000000e+00, 0.000000000000000000e+00, 1.000000000000000000e+02
3.900000000000000000e+01, 4.319487000000000080e+03, 4.221537999999999556e+03, 4.167692000000000007e+03, 4.180512999999999920e+03, 4.654872000000000298e+03, 1.000000000000000000e+00, 0.000000000000000000e+00, 1.000000000000000000e+02
4.000000000000000000e+01, 4.331795000000000073e+03, 4.229743999999999687e+03, 4.175385000000000218e+03, 4.200000000000000000e+03, 4.655385000000000218e+03, 1.000000000000000000e+00, 0.000000000000000000e+00, 1.000000000000000000e+02
4.100000000000000000e+01, 4.333845999999999549e+03, 4.240000000000000000e+03, 4.167692000000000007e+03, 4.208717999999999847e+03, 4.652820999999999913e+03, 1.000000000000000000e+00, 0.000000000000000000e+00, 1.000000000000000000e+02
4.200000000000000000e+01, 4.328717999999999847e+03, 4.237948999999999614e+03, 4.164614999999999782e+03, 4.190256000000000313e+03, 4.643590000000000146e+03, 1.000000000000000000e+00, 0.000000000000000000e+00, 1.000000000000000000e+02
4.300000000000000000e+01, 4.321025999999999840e+03, 4.229743999999999687e+03, 4.171795000000000073e+03, 4.188204999999999927e+03, 4.626154000000000451e+03, 1.000000000000000000e+00, 0.000000000000000000e+00, 1.000000000000000000e+02
4.400000000000000000e+01, 4.320512999999999920e+03, 4.231795000000000073e+03, 4.174359000000000378e+03, 4.201537999999999556e+03, 4.622564000000000306e+03, 1.000000000000000000e+00, 0.000000000000000000e+00, 1.000000000000000000e+02
4.500000000000000000e+01, 4.325640999999999622e+03, 4.237948999999999614e+03, 4.178462000000000444e+03, 4.202051000000000386e+03, 4.635385000000000218e+03, 1.000000000000000000e+00, 0.000000000000000000e+00, 1.000000000000000000e+02
4.600000000000000000e+01, 4.317435999999999694e+03, 4.231795000000000073e+03, 4.187179000000000087e+03, 4.207692000000000007e+03, 4.634359000000000378e+03, 1.000000000000000000e+00, 0.000000000000000000e+00, 1.000000000000000000e+02
4.700000000000000000e+01, 4.304103000000000065e+03, 4.229743999999999687e+03, 4.191282000000000153e+03, 4.222051000000000386e+03, 4.626154000000000451e+03, 1.000000000000000000e+00, 0.000000000000000000e+00, 1.000000000000000000e+02
4.800000000000000000e+01, 4.301537999999999556e+03, 4.235896999999999935e+03, 4.186154000000000451e+03, 4.214872000000000298e+03, 4.626154000000000451e+03, 1.000000000000000000e+00, 0.000000000000000000e+00, 1.000000000000000000e+02
4.900000000000000000e+01, 4.293845999999999549e+03, 4.233845999999999549e+03, 4.173332999999999629e+03, 4.199487000000000080e+03, 4.617435999999999694e+03, 1.000000000000000000e+00, 0.000000000000000000e+00, 1.000000000000000000e+02
5.000000000000000000e+01, 4.282051000000000386e+03, 4.223590000000000146e+03, 4.156922999999999774e+03, 4.199487000000000080e+03, 4.601025999999999840e+03, 1.000000000000000000e+00, 0.000000000000000000e+00, 1.000000000000000000e+02
5.100000000000000000e+01, 4.281537999999999556e+03, 4.211282000000000153e+03, 4.150769000000000233e+03, 4.198974000000000160e+03, 4.594359000000000378e+03, 1.000000000000000000e+00, 0.000000000000000000e+00, 1.000000000000000000e+02
5.200000000000000000e+01, 4.282564000000000306e+03, 4.211282000000000153e+03, 4.153845999999999549e+03, 4.193845999999999549e+03, 4.594359000000000378e+03, 1.000000000000000000e+00, 0.000000000000000000e+00, 1.000000000000000000e+02
5.300000000000000000e+01, 4.272820999999999913e+03, 4.213332999999999629e+03, 4.148204999999999927e+03, 4.188717999999999847e+03, 4.585640999999999622e+03, 1.000000000000000000e+00, 0.000000000000000000e+00, 1.000000000000000000e+02
5.400000000000000000e+01, 4.263590000000000146e+03, 4.209230999999999767e+03, 4.151282000000000153e+03, 4.190769000000000233e+03, 4.576409999999999854e+03, 1.000000000000000000e+00, 0.000000000000000000e+00, 1.000000000000000000e+02
5.500000000000000000e+01, 4.270256000000000313e+03, 4.209230999999999767e+03, 4.173332999999999629e+03, 4.205127999999999702e+03, 4.575385000000000218e+03, 1.000000000000000000e+00, 0.000000000000000000e+00, 1.000000000000000000e+02
5.600000000000000000e+01, 4.272307999999999993e+03, 4.215385000000000218e+03, 4.183077000000000226e+03, 4.206667000000000371e+03, 4.566667000000000371e+03, 1.000000000000000000e+00, 0.000000000000000000e+00, 1.000000000000000000e+02
5.700000000000000000e+01, 4.265127999999999702e+03, 4.219487000000000080e+03, 4.181537999999999556e+03, 4.189743999999999687e+03, 4.556922999999999774e+03, 1.000000000000000000e+00, 0.000000000000000000e+00, 1.000000000000000000e+02
5.800000000000000000e+01, 4.267692000000000007e+03, 4.217435999999999694e+03, 4.185127999999999702e+03, 4.187692000000000007e+03, 4.558462000000000444e+03, 1.000000000000000000e+00, 0.000000000000000000e+00, 1.000000000000000000e+02
5.900000000000000000e+01, 4.276922999999999774e+03, 4.217435999999999694e+03, 4.182564000000000306e+03, 4.204614999999999782e+03, 4.566667000000000371e+03, 1.000000000000000000e+00, 0.000000000000000000e+00, 1.000000000000000000e+02
6.000000000000000000e+01, 4.274872000000000298e+03, 4.219487000000000080e+03, 4.173332999999999629e+03, 4.205127999999999702e+03, 4.564614999999999782e+03, 1.000000000000000000e+00, 0.000000000000000000e+00, 1.000000000000000000e+02
6.100000000000000000e+01, 4.255896999999999935e+03, 4.215385000000000218e+03, 4.162051000000000386e+03, 4.184614999999999782e+03, 4.548204999999999927e+03, 1.000000000000000000e+00, 0.000000000000000000e+00, 1.000000000000000000e+02
6.200000000000000000e+01, 4.243077000000000226e+03, 4.196922999999999774e+03, 4.144614999999999782e+03, 4.170256000000000313e+03, 4.543590000000000146e+03, 1.000000000000000000e+00, 0.000000000000000000e+00, 1.000000000000000000e+02
6.300000000000000000e+01, 4.255385000000000218e+03, 4.194872000000000298e+03, 4.141025999999999840e+03, 4.180000000000000000e+03, 4.557948999999999614e+03, 1.000000000000000000e+00, 0.000000000000000000e+00, 1.000000000000000000e+02
6.400000000000000000e+01, 4.271282000000000153e+03, 4.209230999999999767e+03, 4.155896999999999935e+03, 4.186667000000000371e+03, 4.566154000000000451e+03, 1.000000000000000000e+00, 0.000000000000000000e+00, 1.000000000000000000e+02
6.500000000000000000e+01, 4.261537999999999556e+03, 4.213332999999999629e+03, 4.160000000000000000e+03, 4.180512999999999920e+03, 4.558462000000000444e+03, 1.000000000000000000e+00, 0.000000000000000000e+00, 1.000000000000000000e+02
6.600000000000000000e+01, 4.242564000000000306e+03, 4.207179000000000087e+03, 4.155896999999999935e+03, 4.188204999999999927e+03, 4.547179000000000087e+03, 1.000000000000000000e+00, 0.000000000000000000e+00, 1.000000000000000000e+02
6.700000000000000000e+01, 4.246667000000000371e+03, 4.213332999999999629e+03, 4.165640999999999622e+03, 4.201025999999999840e+03, 4.544103000000000065e+03, 1.000000000000000000e+00, 0.000000000000000000e+00, 1.000000000000000000e+02
6.800000000000000000e+01, 4.251282000000000153e+03, 4.225640999999999622e+03, 4.185640999999999622e+03, 4.200000000000000000e+03, 4.540000000000000000e+03, 1.000000000000000000e+00, 0.000000000000000000e+00, 1.000000000000000000e+02
6.900000000000000000e+01, 4.239487000000000080e+03, 4.235896999999999935e+03, 4.200000000000000000e+03, 4.197948999999999614e+03, 4.534359000000000378e+03, 1.000000000000000000e+00, 0.000000000000000000e+00, 1.000000000000000000e+02
7.000000000000000000e+01, 4.240512999999999920e+03, 4.250256000000000313e+03, 4.206667000000000371e+03, 4.205640999999999622e+03, 4.546154000000000451e+03, 1.000000000000000000e+00, 0.000000000000000000e+00, 1.000000000000000000e+02
7.100000000000000000e+01, 4.247179000000000087e+03, 4.256409999999999854e+03, 4.211795000000000073e+03, 4.209743999999999687e+03, 4.554359000000000378e+03, 1.000000000000000000e+00, 0.000000000000000000e+00, 1.000000000000000000e+02
7.200000000000000000e+01, 4.234359000000000378e+03, 4.250256000000000313e+03, 4.207179000000000087e+03, 4.207179000000000087e+03, 4.543077000000000226e+03, 1.000000000000000000e+00, 0.000000000000000000e+00, 1.000000000000000000e+02
7.300000000000000000e+01, 4.214872000000000298e+03, 4.237948999999999614e+03, 4.182564000000000306e+03, 4.201025999999999840e+03, 4.528204999999999927e+03, 1.000000000000000000e+00, 0.000000000000000000e+00, 1.000000000000000000e+02
7.400000000000000000e+01, 4.201025999999999840e+03, 4.233845999999999549e+03, 4.156922999999999774e+03, 4.188717999999999847e+03, 4.515896999999999935e+03, 1.000000000000000000e+00, 0.000000000000000000e+00, 1.000000000000000000e+02
7.500000000000000000e+01, 4.181537999999999556e+03, 4.229743999999999687e+03, 4.148204999999999927e+03, 4.182564000000000306e+03, 4.508204999999999927e+03, 1.000000000000000000e+00, 0.000000000000000000e+00, 1.000000000000000000e+02
7.600000000000000000e+01, 4.166667000000000371e+03, 4.223590000000000146e+03, 4.142564000000000306e+03, 4.189743999999999687e+03, 4.511282000000000153e+03, 1.000000000000000000e+00, 0.000000000000000000e+00, 1.000000000000000000e+02
7.700000000000000000e+01, 4.165640999999999622e+03, 4.227692000000000007e+03, 4.136922999999999774e+03, 4.195385000000000218e+03, 4.515385000000000218e+03, 1.000000000000000000e+00, 0.000000000000000000e+00, 1.000000000000000000e+02
7.800000000000000000e+01, 4.170256000000000313e+03, 4.233845999999999549e+03, 4.148204999999999927e+03, 4.192820999999999913e+03, 4.507692000000000007e+03, 1.000000000000000000e+00, 0.000000000000000000e+00, 1.000000000000000000e+02
7.900000000000000000e+01, 4.177948999999999614e+03, 4.233845999999999549e+03, 4.166154000000000451e+03, 4.197948999999999614e+03, 4.500000000000000000e+03, 1.000000000000000000e+00, 0.000000000000000000e+00, 1.000000000000000000e+02
8.000000000000000000e+01, 4.182051000000000386e+03, 4.240000000000000000e+03, 4.173332999999999629e+03, 4.205640999999999622e+03, 4.496922999999999774e+03, 1.000000000000000000e+00, 0.000000000000000000e+00, 1.000000000000000000e+02
8.100000000000000000e+01, 4.174872000000000298e+03, 4.252307999999999993e+03, 4.174359000000000378e+03, 4.197435999999999694e+03, 4.489743999999999687e+03, 1.000000000000000000e+00, 0.000000000000000000e+00, 1.000000000000000000e+02
8.200000000000000000e+01, 4.171795000000000073e+03, 4.248204999999999927e+03, 4.182564000000000306e+03, 4.198462000000000444e+03, 4.488717999999999847e+03, 1.000000000000000000e+00, 0.000000000000000000e+00, 1.000000000000000000e+02
8.300000000000000000e+01, 4.182564000000000306e+03, 4.242051000000000386e+03, 4.199487000000000080e+03, 4.218462000000000444e+03, 4.500512999999999920e+03, 1.000000000000000000e+00, 0.000000000000000000e+00, 1.000000000000000000e+02
8.400000000000000000e+01, 4.189743999999999687e+03, 4.252307999999999993e+03, 4.203590000000000146e+03, 4.223077000000000226e+03, 4.505640999999999622e+03, 1.000000000000000000e+00, 0.000000000000000000e+00, 1.000000000000000000e+02
8.500000000000000000e+01, 4.188204999999999927e+03, 4.252307999999999993e+03, 4.183077000000000226e+03, 4.210769000000000233e+03, 4.502051000000000386e+03, 1.000000000000000000e+00, 0.000000000000000000e+00, 1.000000000000000000e+02
8.600000000000000000e+01, 4.186667000000000371e+03, 4.231795000000000073e+03, 4.165127999999999702e+03, 4.205127999999999702e+03, 4.495385000000000218e+03, 1.000000000000000000e+00, 0.000000000000000000e+00, 1.000000000000000000e+02
8.700000000000000000e+01, 4.183590000000000146e+03, 4.231795000000000073e+03, 4.167179000000000087e+03, 4.203590000000000146e+03, 4.488204999999999927e+03, 1.000000000000000000e+00, 0.000000000000000000e+00, 1.000000000000000000e+02
8.800000000000000000e+01, 4.176922999999999774e+03, 4.242051000000000386e+03, 4.163590000000000146e+03, 4.201025999999999840e+03, 4.487179000000000087e+03, 1.000000000000000000e+00, 0.000000000000000000e+00, 1.000000000000000000e+02
8.900000000000000000e+01, 4.166154000000000451e+03, 4.235896999999999935e+03, 4.147179000000000087e+03, 4.191282000000000153e+03, 4.477948999999999614e+03, 1.000000000000000000e+00, 0.000000000000000000e+00, 1.000000000000000000e+02
9.000000000000000000e+01, 4.171795000000000073e+03, 4.235896999999999935e+03, 4.144614999999999782e+03, 4.182564000000000306e+03, 4.467179000000000087e+03, 1.000000000000000000e+00, 0.000000000000000000e+00, 1.000000000000000000e+02
9.100000000000000000e+01, 4.190256000000000313e+03, 4.250256000000000313e+03, 4.161025999999999840e+03, 4.189230999999999767e+03, 4.476409999999999854e+03, 1.000000000000000000e+00, 0.000000000000000000e+00, 1.000000000000000000e+02
9.200000000000000000e+01, 4.188204999999999927e+03, 4.250256000000000313e+03, 4.175385000000000218e+03, 4.204103000000000065e+03, 4.482051000000000386e+03, 1.000000000000000000e+00, 0.000000000000000000e+00, 1.000000000000000000e+02
9.300000000000000000e+01, 4.174359000000000378e+03, 4.242051000000000386e+03, 4.170769000000000233e+03, 4.211282000000000153e+03, 4.472307999999999993e+03, 1.000000000000000000e+00, 0.000000000000000000e+00, 1.000000000000000000e+02
9.400000000000000000e+01, 4.177948999999999614e+03, 4.240000000000000000e+03, 4.162051000000000386e+03, 4.210256000000000313e+03, 4.475896999999999935e+03, 1.000000000000000000e+00, 0.000000000000000000e+00, 1.000000000000000000e+02
9.500000000000000000e+01, 4.187692000000000007e+03, 4.246154000000000451e+03, 4.183077000000000226e+03, 4.217948999999999614e+03, 4.495896999999999935e+03, 1.000000000000000000e+00, 0.000000000000000000e+00, 1.000000000000000000e+02
9.600000000000000000e+01, 4.182051000000000386e+03, 4.246154000000000451e+03, 4.198462000000000444e+03, 4.223590000000000146e+03, 4.494359000000000378e+03, 1.000000000000000000e+00, 0.000000000000000000e+00, 1.000000000000000000e+02
9.700000000000000000e+01, 4.172820999999999913e+03, 4.233845999999999549e+03, 4.174872000000000298e+03, 4.205127999999999702e+03, 4.472307999999999993e+03, 1.000000000000000000e+00, 0.000000000000000000e+00, 1.000000000000000000e+02
9.800000000000000000e+01, 4.170256000000000313e+03, 4.227692000000000007e+03, 4.160512999999999920e+03, 4.189743999999999687e+03, 4.467692000000000007e+03, 1.000000000000000000e+00, 0.000000000000000000e+00, 1.000000000000000000e+02
9.900000000000000000e+01, 4.172307999999999993e+03, 4.237948999999999614e+03, 4.168204999999999927e+03, 4.196409999999999854e+03, 4.473332999999999629e+03, 1.000000000000000000e+00, 0.000000000000000000e+00, 1.000000000000000000e+02
1.000000000000000000e+02, 4.176409999999999854e+03, 4.233845999999999549e+03, 4.157435999999999694e+03, 4.194872000000000298e+03, 4.462051000000000386e+03, 1.000000000000000000e+00, 0.000000000000000000e+00, 1.000000000000000000e+02
1.010000000000000000e+02, 4.166154000000000451e+03, 4.225640999999999622e+03, 4.137435999999999694e+03, 4.178462000000000444e+03, 4.439487000000000080e+03, 1.000000000000000000e+00, 0.000000000000000000e+00, 1.000000000000000000e+02
1.020000000000000000e+02, 4.151795000000000073e+03, 4.231795000000000073e+03, 4.134872000000000298e+03, 4.181025999999999840e+03, 4.432820999999999913e+03, 1.000000000000000000e+00, 0.000000000000000000e+00, 1.000000000000000000e+02
1.030000000000000000e+02, 4.153845999999999549e+03, 4.227692000000000007e+03, 4.140000000000000000e+03, 4.188717999999999847e+03, 4.435385000000000218e+03, 1.000000000000000000e+00, 0.000000000000000000e+00, 1.000000000000000000e+02
1.040000000000000000e+02, 4.151795000000000073e+03, 4.215385000000000218e+03, 4.144103000000000065e+03, 4.182564000000000306e+03, 4.425127999999999702e+03, 1.000000000000000000e+00, 0.000000000000000000e+00, 1.000000000000000000e+02
1.050000000000000000e+02, 4.134872000000000298e+03, 4.221537999999999556e+03, 4.153332999999999629e+03, 4.184103000000000065e+03, 4.413332999999999629e+03, 1.000000000000000000e+00, 0.000000000000000000e+00, 1.000000000000000000e+02
1.060000000000000000e+02, 4.125640999999999622e+03, 4.229743999999999687e+03, 4.162564000000000306e+03, 4.193845999999999549e+03, 4.407692000000000007e+03, 1.000000000000000000e+00, 0.000000000000000000e+00, 1.000000000000000000e+02
1.070000000000000000e+02, 4.132820999999999913e+03, 4.229743999999999687e+03, 4.168717999999999847e+03, 4.193845999999999549e+03, 4.408717999999999847e+03, 1.000000000000000000e+00, 0.000000000000000000e+00, 1.000000000000000000e+02
1.080000000000000000e+02, 4.141537999999999556e+03, 4.231795000000000073e+03, 4.172820999999999913e+03, 4.187692000000000007e+03, 4.415896999999999935e+03, 1.000000000000000000e+00, 0.000000000000000000e+00, 1.000000000000000000e+02
1.090000000000000000e+02, 4.131795000000000073e+03, 4.233845999999999549e+03, 4.168717999999999847e+03, 4.190256000000000313e+03, 4.410769000000000233e+03, 1.000000000000000000e+00, 0.000000000000000000e+00, 1.000000000000000000e+02
1.100000000000000000e+02, 4.112307999999999993e+03, 4.231795000000000073e+03, 4.150769000000000233e+03, 4.186154000000000451e+03, 4.397948999999999614e+03, 1.000000000000000000e+00, 0.000000000000000000e+00, 1.000000000000000000e+02
1.110000000000000000e+02, 4.112307999999999993e+03, 4.235896999999999935e+03, 4.136409999999999854e+03, 4.175896999999999935e+03, 4.401025999999999840e+03, 1.000000000000000000e+00, 0.000000000000000000e+00, 1.000000000000000000e+02
1.120000000000000000e+02, 4.132307999999999993e+03, 4.233845999999999549e+03, 4.137948999999999614e+03, 4.181025999999999840e+03, 4.406667000000000371e+03, 1.000000000000000000e+00, 0.000000000000000000e+00, 1.000000000000000000e+02
1.130000000000000000e+02, 4.140512999999999920e+03, 4.229743999999999687e+03, 4.142051000000000386e+03, 4.191282000000000153e+03, 4.400000000000000000e+03, 1.000000000000000000e+00, 0.000000000000000000e+00, 1.000000000000000000e+02
1.140000000000000000e+02, 4.137435999999999694e+03, 4.240000000000000000e+03, 4.141025999999999840e+03, 4.189230999999999767e+03, 4.388717999999999847e+03, 1.000000000000000000e+00, 0.000000000000000000e+00, 1.000000000000000000e+02
1.150000000000000000e+02, 4.144103000000000065e+03, 4.246154000000000451e+03, 4.143077000000000226e+03, 4.184614999999999782e+03, 4.386667000000000371e+03, 1.000000000000000000e+00, 0.000000000000000000e+00, 1.000000000000000000e+02
1.160000000000000000e+02, 4.146667000000000371e+03, 4.235896999999999935e+03, 4.150256000000000313e+03, 4.185127999999999702e+03, 4.395385000000000218e+03, 1.000000000000000000e+00, 0.000000000000000000e+00, 1.000000000000000000e+02
1.170000000000000000e+02, 4.127692000000000007e+03, 4.227692000000000007e+03, 4.151795000000000073e+03, 4.188717999999999847e+03, 4.392820999999999913e+03, 1.000000000000000000e+00, 0.000000000000000000e+00, 1.000000000000000000e+02
1.180000000000000000e+02, 4.117948999999999614e+03, 4.229743999999999687e+03, 4.156409999999999854e+03, 4.198462000000000444e+03, 4.384103000000000065e+03, 1.000000000000000000e+00, 0.000000000000000000e+00, 1.000000000000000000e+02
1.190000000000000000e+02, 4.135385000000000218e+03, 4.231795000000000073e+03, 4.176409999999999854e+03, 4.202051000000000386e+03, 4.394872000000000298e+03, 1.000000000000000000e+00, 0.000000000000000000e+00, 1.000000000000000000e+02
1.200000000000000000e+02, 4.148717999999999847e+03, 4.231795000000000073e+03, 4.189230999999999767e+03, 4.196922999999999774e+03, 4.405127999999999702e+03, 1.000000000000000000e+00, 0.000000000000000000e+00, 1.000000000000000000e+02
1.210000000000000000e+02, 4.148204999999999927e+03, 4.231795000000000073e+03, 4.177435999999999694e+03, 4.197948999999999614e+03, 4.388204999999999927e+03, 1.000000000000000000e+00, 0.000000000000000000e+00, 1.000000000000000000e+02
1.220000000000000000e+02, 4.142564000000000306e+03, 4.240000000000000000e+03, 4.152820999999999913e+03, 4.189743999999999687e+03, 4.362564000000000306e+03, 1.000000000000000000e+00, 0.000000000000000000e+00, 1.000000000000000000e+02
1.230000000000000000e+02, 4.141537999999999556e+03, 4.248204999999999927e+03, 4.143077000000000226e+03, 4.168717999999999847e+03, 4.357948999999999614e+03, 1.000000000000000000e+00, 0.000000000000000000e+00, 1.000000000000000000e+02
1.240000000000000000e+02, 4.148204999999999927e+03, 4.248204999999999927e+03, 4.148204999999999927e+03, 4.161025999999999840e+03, 4.362564000000000306e+03, 1.000000000000000000e+00, 0.000000000000000000e+00, 1.000000000000000000e+02
1.250000000000000000e+02, 4.150769000000000233e+03, 4.250256000000000313e+03, 4.147179000000000087e+03, 4.169230999999999767e+03, 4.360000000000000000e+03, 1.000000000000000000e+00, 0.000000000000000000e+00, 1.000000000000000000e+02
1.260000000000000000e+02, 4.148204999999999927e+03, 4.250256000000000313e+03, 4.139487000000000080e+03, 4.177435999999999694e+03, 4.358462000000000444e+03, 1.000000000000000000e+00, 0.000000000000000000e+00, 1.000000000000000000e+02
1.270000000000000000e+02, 4.145640999999999622e+03, 4.233845999999999549e+03, 4.138974000000000160e+03, 4.182564000000000306e+03, 4.357435999999999694e+03, 1.000000000000000000e+00, 0.000000000000000000e+00, 1.000000000000000000e+02
0.000000000000000000e+00, 4.138462000000000444e+03, 4.219487000000000080e+03, 4.140512999999999920e+03, 4.187692000000000007e+03, 4.354872000000000298e+03, 1.000000000000000000e+00, 0.000000000000000000e+00, 1.000000000000000000e+02
1.000000000000000000e+00, 4.125127999999999702e+03, 4.211282000000000153e+03, 4.135385000000000218e+03, 4.187179000000000087e+03, 4.347692000000000007e+03, 1.000000000000000000e+00, 0.000000000000000000e+00, 1.000000000000000000e+02
2.000000000000000000e+00, 4.121025999999999840e+03, 4.203077000000000226e+03, 4.139487000000000080e+03, 4.179487000000000080e+03, 4.339487000000000080e+03, 1.000000000000000000e+00, 0.000000000000000000e+00, 1.000000000000000000e+02
3.000000000000000000e+00, 4.128204999999999927e+03, 4.196922999999999774e+03, 4.144614999999999782e+03, 4.177435999999999694e+03, 4.341025999999999840e+03, 1.000000000000000000e+00, 0.000000000000000000e+00, 1.000000000000000000e+02
4.000000000000000000e+00, 4.140000000000000000e+03, 4.203077000000000226e+03, 4.136409999999999854e+03, 4.192307999999999993e+03, 4.348717999999999847e+03, 1.000000000000000000e+00, 0.000000000000000000e+00, 1.000000000000000000e+02
5.000000000000000000e+00, 4.144103000000000065e+03, 4.219487000000000080e+03, 4.136409999999999854e+03, 4.200000000000000000e+03, 4.346154000000000451e+03, 1.000000000000000000e+00, 0.000000000000000000e+00, 1.000000000000000000e+02
6.000000000000000000e+00, 4.126667000000000371e+03, 4.221537999999999556e+03, 4.141025999999999840e+03, 4.189230999999999767e+03, 4.321025999999999840e+03, 1.000000000000000000e+00, 0.000000000000000000e+00, 1.000000000000000000e+02
7.000000000000000000e+00, 4.107179000000000087e+03, 4.225640999999999622e+03, 4.130256000000000313e+03, 4.184103000000000065e+03, 4.295385000000000218e+03, 1.000000000000000000e+00, 0.000000000000000000e+00, 1.000000000000000000e+02
8.000000000000000000e+00, 4.110769000000000233e+03, 4.240000000000000000e+03, 4.121025999999999840e+03, 4.179487000000000080e+03, 4.300000000000000000e+03, 1.000000000000000000e+00, 0.000000000000000000e+00, 1.000000000000000000e+02
9.000000000000000000e+00, 4.121025999999999840e+03, 4.240000000000000000e+03, 4.121025999999999840e+03, 4.158974000000000160e+03, 4.309230999999999767e+03, 1.000000000000000000e+00, 0.000000000000000000e+00, 1.000000000000000000e+02
1.000000000000000000e+01, 4.122051000000000386e+03, 4.233845999999999549e+03, 4.120512999999999920e+03, 4.149230999999999767e+03, 4.302564000000000306e+03, 1.000000000000000000e+00, 0.000000000000000000e+00, 1.000000000000000000e+02
1.100000000000000000e+01, 4.115385000000000218e+03, 4.244103000000000065e+03, 4.120000000000000000e+03, 4.155385000000000218e+03, 4.289230999999999767e+03, 1.000000000000000000e+00, 0.000000000000000000e+00, 1.000000000000000000e+02
1.200000000000000000e+01, 4.098462000000000444e+03, 4.250256000000000313e+03, 4.120512999999999920e+03, 4.147692000000000007e+03, 4.271282000000000153e+03, 1.000000000000000000e+00, 0.000000000000000000e+00, 1.000000000000000000e+02
1.300000000000000000e+01, 4.081538000000000011e+03, 4.229743999999999687e+03, 4.125640999999999622e+03, 4.149230999999999767e+03, 4.266154000000000451e+03, 1.000000000000000000e+00, 0.000000000000000000e+00, 1.000000000000000000e+02
1.400000000000000000e+01, 4.074358999999999924e+03, 4.219487000000000080e+03, 4.144614999999999782e+03, 4.172820999999999913e+03, 4.278974000000000160e+03, 1.000000000000000000e+00, 0.000000000000000000e+00, 1.000000000000000000e+02
1.500000000000000000e+01, 4.070768999999999778e+03, 4.227692000000000007e+03, 4.165127999999999702e+03, 4.178974000000000160e+03, 4.290769000000000233e+03, 1.000000000000000000e+00, 0.000000000000000000e+00, 1.000000000000000000e+02
1.600000000000000000e+01, 4.081025999999999840e+03, 4.229743999999999687e+03, 4.170256000000000313e+03, 4.181025999999999840e+03, 4.298974000000000160e+03, 1.000000000000000000e+00, 0.000000000000000000e+00, 1.000000000000000000e+02
1.700000000000000000e+01, 4.102051000000000386e+03, 4.225640999999999622e+03, 4.168204999999999927e+03, 4.211795000000000073e+03, 4.306667000000000371e+03, 1.000000000000000000e+00, 0.000000000000000000e+00, 1.000000000000000000e+02
1.800000000000000000e+01, 4.098462000000000444e+03, 4.223590000000000146e+03, 4.171282000000000153e+03, 4.240512999999999920e+03, 4.306667000000000371e+03, 1.000000000000000000e+00, 0.000000000000000000e+00, 1.000000000000000000e+02
1.900000000000000000e+01, 4.067692000000000007e+03, 4.219487000000000080e+03, 4.170256000000000313e+03, 4.233332999999999629e+03, 4.292820999999999913e+03, 1.000000000000000000e+00, 0.000000000000000000e+00, 1.000000000000000000e+02
2.000000000000000000e+01, 4.053846000000000004e+03, 4.215385000000000218e+03, 4.162051000000000386e+03, 4.220000000000000000e+03, 4.280000000000000000e+03, 1.000000000000000000e+00, 0.000000000000000000e+00, 1.000000000000000000e+02
2.100000000000000000e+01, 4.061025999999999840e+03, 4.223590000000000146e+03, 4.149743999999999687e+03, 4.205127999999999702e+03, 4.272307999999999993e+03, 1.000000000000000000e+00, 0.000000000000000000e+00, 1.000000000000000000e+02
2.200000000000000000e+01, 4.063077000000000226e+03, 4.229743999999999687e+03, 4.135385000000000218e+03, 4.172307999999999993e+03, 4.255896999999999935e+03, 1.000000000000000000e+00, 0.000000000000000000e+00, 1.000000000000000000e+02
2.300000000000000000e+01, 4.054871999999999844e+03, 4.227692000000000007e+03, 4.136409999999999854e+03, 4.157435999999999694e+03, 4.240512999999999920e+03, 1.000000000000000000e+00, 0.000000000000000000e+00, 1.000000000000000000e+02
2.400000000000000000e+01, 4.037436000000000149e+03, 4.229743999999999687e+03, 4.152307999999999993e+03, 4.163590000000000146e+03, 4.229743999999999687e+03, 1.000000000000000000e+00, 0.000000000000000000e+00, 1.000000000000000000e+02
2.500000000000000000e+01, 4.016922999999999774e+03, 4.237948999999999614e+03, 4.153845999999999549e+03, 4.164614999999999782e+03, 4.214359000000000378e+03, 1.000000000000000000e+00, 0.000000000000000000e+00, 1.000000000000000000e+02
2.600000000000000000e+01, 4.011795000000000073e+03, 4.237948999999999614e+03, 4.149230999999999767e+03, 4.170769000000000233e+03, 4.208717999999999847e+03, 1.000000000000000000e+00, 0.000000000000000000e+00, 1.000000000000000000e+02
2.700000000000000000e+01, 4.021538000000000011e+03, 4.237948999999999614e+03, 4.160000000000000000e+03, 4.189743999999999687e+03, 4.220512999999999920e+03, 1.000000000000000000e+00, 0.000000000000000000e+00, 1.000000000000000000e+02
2.800000000000000000e+01, 4.034871999999999844e+03, 4.244103000000000065e+03, 4.170256000000000313e+03, 4.197435999999999694e+03, 4.228717999999999847e+03, 1.000000000000000000e+00, 0.000000000000000000e+00, 1.000000000000000000e+02
2.900000000000000000e+01, 4.041025999999999840e+03, 4.250256000000000313e+03, 4.170256000000000313e+03, 4.197435999999999694e+03, 4.226154000000000451e+03, 1.000000000000000000e+00, 0.000000000000000000e+00, 1.000000000000000000e+02
3.000000000000000000e+01, 4.041025999999999840e+03, 4.250256000000000313e+03, 4.165640999999999622e+03, 4.214359000000000378e+03, 4.226154000000000451e+03, 1.000000000000000000e+00, 0.000000000000000000e+00, 1.000000000000000000e+02
3.100000000000000000e+01, 4.040512999999999920e+03, 4.246154000000000451e+03, 4.148717999999999847e+03, 4.223590000000000146e+03, 4.223077000000000226e+03, 1.000000000000000000e+00, 0.000000000000000000e+00, 1.000000000000000000e+02
3.200000000000000000e+01, 4.025128000000000156e+03, 4.235896999999999935e+03, 4.123590000000000146e+03, 4.205640999999999622e+03, 4.195896999999999935e+03, 1.000000000000000000e+00, 0.000000000000000000e+00, 1.000000000000000000e+02
3.300000000000000000e+01, 4.004614999999999782e+03, 4.229743999999999687e+03, 4.112820999999999913e+03, 4.188717999999999847e+03, 4.167692000000000007e+03, 1.000000000000000000e+00, 0.000000000000000000e+00, 1.000000000000000000e+02
3.400000000000000000e+01, 4.008204999999999927e+03, 4.229743999999999687e+03, 4.111795000000000073e+03, 4.182051000000000386e+03, 4.160000000000000000e+03, 1.000000000000000000e+00, 0.000000000000000000e+00, 1.000000000000000000e+02
3.500000000000000000e+01, 4.024103000000000065e+03, 4.225640999999999622e+03, 4.110256000000000313e+03, 4.171795000000000073e+03, 4.158974000000000160e+03, 1.000000000000000000e+00, 0.000000000000000000e+00, 1.000000000000000000e+02
3.600000000000000000e+01, 4.030255999999999858e+03, 4.231795000000000073e+03, 4.129743999999999687e+03, 4.162051000000000386e+03, 4.156409999999999854e+03, 1.000000000000000000e+00, 0.000000000000000000e+00, 1.000000000000000000e+02
3.700000000000000000e+01, 4.023590000000000146e+03, 4.233845999999999549e+03, 4.162564000000000306e+03, 4.172820999999999913e+03, 4.153332999999999629e+03, 1.000000000000000000e+00, 0.000000000000000000e+00, 1.000000000000000000e+02
3.800000000000000000e+01, 4.020000000000000000e+03, 4.219487000000000080e+03, 4.174872000000000298e+03, 4.193845999999999549e+03, 4.160512999999999920e+03, 1.000000000000000000e+00, 0.000000000000000000e+00, 1.000000000000000000e+02
3.900000000000000000e+01, 4.030255999999999858e+03, 4.219487000000000080e+03, 4.171282000000000153e+03, 4.201537999999999556e+03, 4.169743999999999687e+03, 1.000000000000000000e+00, 0.000000000000000000e+00, 1.000000000000000000e+02
4.000000000000000000e+01, 4.036922999999999774e+03, 4.233845999999999549e+03, 4.173332999999999629e+03, 4.199487000000000080e+03, 4.160512999999999920e+03, 1.000000000000000000e+00, 0.000000000000000000e+00, 1.000000000000000000e+02
4.100000000000000000e+01, 4.028717999999999847e+03, 4.231795000000000073e+03, 4.173332999999999629e+03, 4.198974000000000160e+03, 4.143590000000000146e+03, 1.000000000000000000e+00, 0.000000000000000000e+00, 1.000000000000000000e+02
4.200000000000000000e+01, 4.015896999999999935e+03, 4.219487000000000080e+03, 4.158462000000000444e+03, 4.203590000000000146e+03, 4.124614999999999782e+03, 1.000000000000000000e+00, 0.000000000000000000e+00, 1.000000000000000000e+02
4.300000000000000000e+01, 4.001025999999999840e+03, 4.215385000000000218e+03, 4.142564000000000306e+03, 4.207692000000000007e+03, 4.098462000000000444e+03, 1.000000000000000000e+00, 0.000000000000000000e+00, 1.000000000000000000e+02
4.400000000000000000e+01, 3.976409999999999854e+03, 4.209230999999999767e+03, 4.123590000000000146e+03, 4.200000000000000000e+03, 4.069744000000000142e+03, 1.000000000000000000e+00, 0.000000000000000000e+00, 1.000000000000000000e+02
4.500000000000000000e+01, 3.956922999999999774e+03, 4.203077000000000226e+03, 4.101025999999999840e+03, 4.185640999999999622e+03, 4.051282000000000153e+03, 1.000000000000000000e+00, 0.000000000000000000e+00, 1.000000000000000000e+02
4.600000000000000000e+01, 3.955385000000000218e+03, 4.196922999999999774e+03, 4.104614999999999782e+03, 4.182051000000000386e+03, 4.044614999999999782e+03, 1.000000000000000000e+00, 0.000000000000000000e+00, 1.000000000000000000e+02
4.700000000000000000e+01, 3.965128000000000156e+03, 4.194872000000000298e+03, 4.131795000000000073e+03, 4.185640999999999622e+03, 4.039487000000000080e+03, 0.000000000000000000e+00, 1.000000000000000000e+00, 1.000000000000000000e+02
4.800000000000000000e+01, 3.970768999999999778e+03, 4.205127999999999702e+03, 4.150256000000000313e+03, 4.183077000000000226e+03, 4.032307999999999993e+03, 0.000000000000000000e+00, 1.000000000000000000e+00, 1.000000000000000000e+02
4.900000000000000000e+01, 3.965641000000000076e+03, 4.215385000000000218e+03, 4.165640999999999622e+03, 4.190769000000000233e+03, 4.022050999999999931e+03, 0.000000000000000000e+00, 1.000000000000000000e+00, 1.000000000000000000e+02
5.000000000000000000e+01, 3.952820999999999913e+03, 4.213332999999999629e+03, 4.187179000000000087e+03, 4.199487000000000080e+03, 4.001025999999999840e+03, 0.000000000000000000e+00, 1.000000000000000000e+00, 1.000000000000000000e+02
5.100000000000000000e+01, 3.936409999999999854e+03, 4.205127999999999702e+03, 4.186154000000000451e+03, 4.190256000000000313e+03, 3.968717999999999847e+03, 0.000000000000000000e+00, 1.000000000000000000e+00, 1.000000000000000000e+02
5.200000000000000000e+01, 3.922050999999999931e+03, 4.203077000000000226e+03, 4.164103000000000065e+03, 4.184103000000000065e+03, 3.941538000000000011e+03, 0.000000000000000000e+00, 1.000000000000000000e+00, 1.000000000000000000e+02
5.300000000000000000e+01, 3.921025999999999840e+03, 4.207179000000000087e+03, 4.159487000000000080e+03, 4.189743999999999687e+03, 3.936922999999999774e+03, 0.000000000000000000e+00, 1.000000000000000000e+00, 1.000000000000000000e+02
5.400000000000000000e+01, 3.922563999999999851e+03, 4.196922999999999774e+03, 4.164103000000000065e+03, 4.194872000000000298e+03, 3.940512999999999920e+03, 0.000000000000000000e+00, 1.000000000000000000e+00, 1.000000000000000000e+02
5.500000000000000000e+01, 3.916922999999999774e+03, 4.182564000000000306e+03, 4.156922999999999774e+03, 4.196922999999999774e+03, 3.933333000000000084e+03, 0.000000000000000000e+00, 1.000000000000000000e+00, 1.000000000000000000e+02
5.600000000000000000e+01, 3.928717999999999847e+03, 4.186667000000000371e+03, 4.157948999999999614e+03, 4.200512999999999920e+03, 3.934358999999999924e+03, 0.000000000000000000e+00, 1.000000000000000000e+00, 1.000000000000000000e+02
5.700000000000000000e+01, 3.941538000000000011e+03, 4.186667000000000371e+03, 4.166667000000000371e+03, 4.200512999999999920e+03, 3.937949000000000069e+03, 0.000000000000000000e+00, 1.000000000000000000e+00, 1.000000000000000000e+02
5.800000000000000000e+01, 3.926153999999999996e+03, 4.166154000000000451e+03, 4.163590000000000146e+03, 4.201537999999999556e+03, 3.918974000000000160e+03, 0.000000000000000000e+00, 1.000000000000000000e+00, 1.000000000000000000e+02
5.900000000000000000e+01, 3.912820999999999913e+03, 4.162051000000000386e+03, 4.167692000000000007e+03, 4.203077000000000226e+03, 3.895385000000000218e+03, 0.000000000000000000e+00, 1.000000000000000000e+00, 1.000000000000000000e+02
6.000000000000000000e+01, 3.916409999999999854e+03, 4.172307999999999993e+03, 4.184614999999999782e+03, 4.203077000000000226e+03, 3.876409999999999854e+03, 0.000000000000000000e+00, 1.000000000000000000e+00, 1.000000000000000000e+02
6.100000000000000000e+01, 3.910255999999999858e+03, 4.166154000000000451e+03, 4.184614999999999782e+03, 4.203590000000000146e+03, 3.851282000000000153e+03, 0.000000000000000000e+00, 1.000000000000000000e+00, 1.000000000000000000e+02
6.200000000000000000e+01, 3.892307999999999993e+03, 4.153845999999999549e+03, 4.176922999999999774e+03, 4.195896999999999935e+03, 3.824103000000000065e+03, 0.000000000000000000e+00, 1.000000000000000000e+00, 1.000000000000000000e+02
6.300000000000000000e+01, 3.874871999999999844e+03, 4.155896999999999935e+03, 4.186667000000000371e+03, 4.192820999999999913e+03, 3.806666999999999916e+03, 0.000000000000000000e+00, 1.000000000000000000e+00, 1.000000000000000000e+02
6.400000000000000000e+01, 3.856922999999999774e+03, 4.168204999999999927e+03, 4.186154000000000451e+03, 4.196922999999999774e+03, 3.784103000000000065e+03, 0.000000000000000000e+00, 1.000000000000000000e+00, 1.000000000000000000e+02
6.500000000000000000e+01, 3.847179000000000087e+03, 4.178462000000000444e+03, 4.170256000000000313e+03, 4.190256000000000313e+03, 3.760000000000000000e+03, 0.000000000000000000e+00, 1.000000000000000000e+00, 1.000000000000000000e+02
6.600000000000000000e+01, 3.853846000000000004e+03, 4.178462000000000444e+03, 4.169230999999999767e+03, 4.186667000000000371e+03, 3.748204999999999927e+03, 0.000000000000000000e+00, 1.000000000000000000e+00, 1.000000000000000000e+02
6.700000000000000000e+01, 3.851795000000000073e+03, 4.170256000000000313e+03, 4.170256000000000313e+03, 4.193332999999999629e+03, 3.730255999999999858e+03, 0.000000000000000000e+00, 1.000000000000000000e+00, 1.000000000000000000e+02
6.800000000000000000e+01, 3.845641000000000076e+03, 4.164103000000000065e+03, 4.164614999999999782e+03, 4.198974000000000160e+03, 3.714358999999999924e+03, 0.000000000000000000e+00, 1.000000000000000000e+00, 1.000000000000000000e+02
6.900000000000000000e+01, 3.859487000000000080e+03, 4.162051000000000386e+03, 4.173332999999999629e+03, 4.205640999999999622e+03, 3.717949000000000069e+03, 0.000000000000000000e+00, 1.000000000000000000e+00, 1.000000000000000000e+02
7.000000000000000000e+01, 3.868717999999999847e+03, 4.160000000000000000e+03, 4.170769000000000233e+03, 4.200000000000000000e+03, 3.702050999999999931e+03, 0.000000000000000000e+00, 1.000000000000000000e+00, 1.000000000000000000e+02
7.100000000000000000e+01, 3.857949000000000069e+03, 4.145640999999999622e+03, 4.144614999999999782e+03, 4.177435999999999694e+03, 3.663077000000000226e+03, 0.000000000000000000e+00, 1.000000000000000000e+00, 1.000000000000000000e+02
7.200000000000000000e+01, 3.845128000000000156e+03, 4.127179000000000087e+03, 4.135385000000000218e+03, 4.164614999999999782e+03, 3.635896999999999935e+03, 0.000000000000000000e+00, 1.000000000000000000e+00, 1.000000000000000000e+02
7.300000000000000000e+01, 3.830255999999999858e+03, 4.131282000000000153e+03, 4.144614999999999782e+03, 4.159487000000000080e+03, 3.613846000000000004e+03, 0.000000000000000000e+00, 1.000000000000000000e+00, 1.000000000000000000e+02
7.400000000000000000e+01, 3.818974000000000160e+03, 4.143590000000000146e+03, 4.145640999999999622e+03, 4.156409999999999854e+03, 3.579487000000000080e+03, 0.000000000000000000e+00, 1.000000000000000000e+00, 1.000000000000000000e+02
7.500000000000000000e+01, 3.817436000000000149e+03, 4.131282000000000153e+03, 4.148204999999999927e+03, 4.162564000000000306e+03, 3.549231000000000222e+03, 0.000000000000000000e+00, 1.000000000000000000e+00, 1.000000000000000000e+02
7.600000000000000000e+01, 3.812820999999999913e+03, 4.116922999999999774e+03, 4.154872000000000298e+03, 4.161025999999999840e+03, 3.541538000000000011e+03, 0.000000000000000000e+00, 1.000000000000000000e+00, 1.000000000000000000e+02
7.700000000000000000e+01, 3.806666999999999916e+03, 4.121025999999999840e+03, 4.161537999999999556e+03, 4.161537999999999556e+03, 3.542050999999999931e+03, 0.000000000000000000e+00, 1.000000000000000000e+00, 1.000000000000000000e+02
7.800000000000000000e+01, 3.805641000000000076e+03, 4.133332999999999629e+03, 4.176409999999999854e+03, 4.180000000000000000e+03, 3.525641000000000076e+03, 0.000000000000000000e+00, 1.000000000000000000e+00, 1.000000000000000000e+02
7.900000000000000000e+01, 3.797436000000000149e+03, 4.123077000000000226e+03, 4.189743999999999687e+03, 4.191795000000000073e+03, 3.503077000000000226e+03, 0.000000000000000000e+00, 1.000000000000000000e+00, 1.000000000000000000e+02
8.000000000000000000e+01, 3.787179000000000087e+03, 4.104614999999999782e+03, 4.188204999999999927e+03, 4.186667000000000371e+03, 3.488717999999999847e+03, 0.000000000000000000e+00, 1.000000000000000000e+00, 1.000000000000000000e+02
8.100000000000000000e+01, 3.783077000000000226e+03, 4.104614999999999782e+03, 4.176922999999999774e+03, 4.181025999999999840e+03, 3.471795000000000073e+03, 0.000000000000000000e+00, 1.000000000000000000e+00, 1.000000000000000000e+02
8.200000000000000000e+01, 3.763590000000000146e+03, 4.106667000000000371e+03, 4.152307999999999993e+03, 4.167179000000000087e+03, 3.435896999999999935e+03, 0.000000000000000000e+00, 1.000000000000000000e+00, 1.000000000000000000e+02
8.300000000000000000e+01, 3.728204999999999927e+03, 4.090255999999999858e+03, 4.123590000000000146e+03, 4.149230999999999767e+03, 3.389744000000000142e+03, 0.000000000000000000e+00, 1.000000000000000000e+00, 1.000000000000000000e+02
8.400000000000000000e+01, 3.705641000000000076e+03, 4.082050999999999931e+03, 4.115896999999999935e+03, 4.140000000000000000e+03, 3.358974000000000160e+03, 0.000000000000000000e+00, 1.000000000000000000e+00, 1.000000000000000000e+02
8.500000000000000000e+01, 3.696409999999999854e+03, 4.090255999999999858e+03, 4.127692000000000007e+03, 4.131282000000000153e+03, 3.334871999999999844e+03, 0.000000000000000000e+00, 1.000000000000000000e+00, 1.000000000000000000e+02
8.600000000000000000e+01, 3.693846000000000004e+03, 4.092307999999999993e+03, 4.137948999999999614e+03, 4.136409999999999854e+03, 3.314871999999999844e+03, 0.000000000000000000e+00, 1.000000000000000000e+00, 1.000000000000000000e+02
8.700000000000000000e+01, 3.694358999999999924e+03, 4.088204999999999927e+03, 4.145127999999999702e+03, 4.153332999999999629e+03, 3.307692000000000007e+03, 0.000000000000000000e+00, 1.000000000000000000e+00, 1.000000000000000000e+02
8.800000000000000000e+01, 3.692307999999999993e+03, 4.088204999999999927e+03, 4.149230999999999767e+03, 4.154359000000000378e+03, 3.299487000000000080e+03, 0.000000000000000000e+00, 1.000000000000000000e+00, 1.000000000000000000e+02
8.900000000000000000e+01, 3.678461999999999989e+03, 4.090255999999999858e+03, 4.156922999999999774e+03, 4.152820999999999913e+03, 3.282563999999999851e+03, 0.000000000000000000e+00, 1.000000000000000000e+00, 1.000000000000000000e+02
9.000000000000000000e+01, 3.650768999999999778e+03, 4.090255999999999858e+03, 4.164103000000000065e+03, 4.156409999999999854e+03, 3.261025999999999840e+03, 0.000000000000000000e+00, 1.000000000000000000e+00, 1.000000000000000000e+02
9.100000000000000000e+01, 3.638461999999999989e+03, 4.080000000000000000e+03, 4.156409999999999854e+03, 4.148204999999999927e+03, 3.243590000000000146e+03, 0.000000000000000000e+00, 1.000000000000000000e+00, 1.000000000000000000e+02
9.200000000000000000e+01, 3.656409999999999854e+03, 4.075896999999999935e+03, 4.143590000000000146e+03, 4.143077000000000226e+03, 3.244103000000000065e+03, 0.000000000000000000e+00, 1.000000000000000000e+00, 1.000000000000000000e+02
9.300000000000000000e+01, 3.680000000000000000e+03, 4.080000000000000000e+03, 4.136922999999999774e+03, 4.147179000000000087e+03, 3.253333000000000084e+03, 0.000000000000000000e+00, 1.000000000000000000e+00, 1.000000000000000000e+02
9.400000000000000000e+01, 3.697949000000000069e+03, 4.071795000000000073e+03, 4.135896999999999935e+03, 4.148204999999999927e+03, 3.253333000000000084e+03, 0.000000000000000000e+00, 1.000000000000000000e+00, 1.000000000000000000e+02
9.500000000000000000e+01, 3.706153999999999996e+03, 4.063590000000000146e+03, 4.132307999999999993e+03, 4.149743999999999687e+03, 3.241538000000000011e+03, 0.000000000000000000e+00, 1.000000000000000000e+00, 1.000000000000000000e+02
9.600000000000000000e+01, 3.689744000000000142e+03, 4.073846000000000004e+03, 4.136409999999999854e+03, 4.152820999999999913e+03, 3.226666999999999916e+03, 0.000000000000000000e+00, 1.000000000000000000e+00, 1.000000000000000000e+02
9.700000000000000000e+01, 3.663590000000000146e+03, 4.073846000000000004e+03, 4.149230999999999767e+03, 4.143077000000000226e+03, 3.196922999999999774e+03, 0.000000000000000000e+00, 1.000000000000000000e+00, 1.000000000000000000e+02
9.800000000000000000e+01, 3.646153999999999996e+03, 4.057436000000000149e+03, 4.162051000000000386e+03, 4.136922999999999774e+03, 3.155385000000000218e+03, 0.000000000000000000e+00, 1.000000000000000000e+00, 1.000000000000000000e+02
9.900000000000000000e+01, 3.630768999999999778e+03, 4.063590000000000146e+03, 4.177948999999999614e+03, 4.150769000000000233e+03, 3.133846000000000004e+03, 0.000000000000000000e+00, 1.000000000000000000e+00, 1.000000000000000000e+02
1.000000000000000000e+02, 3.608717999999999847e+03, 4.077949000000000069e+03, 4.188204999999999927e+03, 4.157435999999999694e+03, 3.117949000000000069e+03, 0.000000000000000000e+00, 1.000000000000000000e+00, 1.000000000000000000e+02
1.010000000000000000e+02, 3.591282000000000153e+03, 4.069744000000000142e+03, 4.182051000000000386e+03, 4.147179000000000087e+03, 3.082050999999999931e+03, 0.000000000000000000e+00, 1.000000000000000000e+00, 1.000000000000000000e+02
1.020000000000000000e+02, 3.588204999999999927e+03, 4.063590000000000146e+03, 4.178974000000000160e+03, 4.141025999999999840e+03, 3.052307999999999993e+03, 0.000000000000000000e+00, 1.000000000000000000e+00, 1.000000000000000000e+02
1.030000000000000000e+02, 3.577949000000000069e+03, 4.057436000000000149e+03, 4.178974000000000160e+03, 4.140000000000000000e+03, 3.034358999999999924e+03, 0.000000000000000000e+00, 1.000000000000000000e+00, 1.000000000000000000e+02
1.040000000000000000e+02, 3.556922999999999774e+03, 4.049231000000000222e+03, 4.167692000000000007e+03, 4.134872000000000298e+03, 3.014871999999999844e+03, 0.000000000000000000e+00, 1.000000000000000000e+00, 1.000000000000000000e+02
1.050000000000000000e+02, 3.549744000000000142e+03, 4.051282000000000153e+03, 4.159487000000000080e+03, 4.137435999999999694e+03, 2.989744000000000142e+03, 0.000000000000000000e+00, 1.000000000000000000e+00, 1.000000000000000000e+02
1.060000000000000000e+02, 3.552307999999999993e+03, 4.049231000000000222e+03, 4.166667000000000371e+03, 4.152307999999999993e+03, 2.970255999999999858e+03, 0.000000000000000000e+00, 1.000000000000000000e+00, 1.000000000000000000e+02
1.070000000000000000e+02, 3.555896999999999935e+03, 4.036922999999999774e+03, 4.165640999999999622e+03, 4.154872000000000298e+03, 2.965641000000000076e+03, 0.000000000000000000e+00, 1.000000000000000000e+00, 1.000000000000000000e+02
1.080000000000000000e+02, 3.562050999999999931e+03, 4.030768999999999778e+03, 4.142051000000000386e+03, 4.152820999999999913e+03, 2.953846000000000004e+03, 0.000000000000000000e+00, 1.000000000000000000e+00, 1.000000000000000000e+02
1.090000000000000000e+02, 3.564103000000000065e+03, 4.032820999999999913e+03, 4.121537999999999556e+03, 4.147692000000000007e+03, 2.920512999999999920e+03, 0.000000000000000000e+00, 1.000000000000000000e+00, 1.000000000000000000e+02
1.100000000000000000e+02, 3.555385000000000218e+03, 4.030768999999999778e+03, 4.126154000000000451e+03, 4.126667000000000371e+03, 2.881025999999999840e+03, 0.000000000000000000e+00, 1.000000000000000000e+00, 1.000000000000000000e+02
1.110000000000000000e+02, 3.538461999999999989e+03, 4.030768999999999778e+03, 4.146154000000000451e+03, 4.122564000000000306e+03, 2.839487000000000080e+03, 0.000000000000000000e+00, 1.000000000000000000e+00, 1.000000000000000000e+02
1.120000000000000000e+02, 3.524614999999999782e+03, 4.032820999999999913e+03, 4.154359000000000378e+03, 4.142564000000000306e+03, 2.800000000000000000e+03, 0.000000000000000000e+00, 1.000000000000000000e+00, 1.000000000000000000e+02
1.130000000000000000e+02, 3.535896999999999935e+03, 4.038974000000000160e+03, 4.155385000000000218e+03, 4.143590000000000146e+03, 2.796922999999999774e+03, 0.000000000000000000e+00, 1.000000000000000000e+00, 1.000000000000000000e+02
1.140000000000000000e+02, 3.569744000000000142e+03, 4.047179000000000087e+03, 4.169230999999999767e+03, 4.133845999999999549e+03, 2.812820999999999913e+03, 0.000000000000000000e+00, 1.000000000000000000e+00, 1.000000000000000000e+02
1.150000000000000000e+02, 3.588717999999999847e+03, 4.053333000000000084e+03, 4.175385000000000218e+03, 4.146154000000000451e+03, 2.794871999999999844e+03, 0.000000000000000000e+00, 1.000000000000000000e+00, 1.000000000000000000e+02
1.160000000000000000e+02, 3.577949000000000069e+03, 4.049231000000000222e+03, 4.170256000000000313e+03, 4.152820999999999913e+03, 2.759487000000000080e+03, 0.000000000000000000e+00, 1.000000000000000000e+00, 1.000000000000000000e+02
1.170000000000000000e+02, 3.556922999999999774e+03, 4.038974000000000160e+03, 4.170769000000000233e+03, 4.135896999999999935e+03, 2.737436000000000149e+03, 0.000000000000000000e+00, 1.000000000000000000e+00, 1.000000000000000000e+02
1.180000000000000000e+02, 3.545641000000000076e+03, 4.032820999999999913e+03, 4.176409999999999854e+03, 4.135896999999999935e+03, 2.718974000000000160e+03, 0.000000000000000000e+00, 1.000000000000000000e+00, 1.000000000000000000e+02
1.190000000000000000e+02, 3.543077000000000226e+03, 4.030768999999999778e+03, 4.172820999999999913e+03, 4.154359000000000378e+03, 2.695896999999999935e+03, 0.000000000000000000e+00, 1.000000000000000000e+00, 1.000000000000000000e+02
1.200000000000000000e+02, 3.534871999999999844e+03, 4.022563999999999851e+03, 4.153332999999999629e+03, 4.148717999999999847e+03, 2.666153999999999996e+03, 0.000000000000000000e+00, 1.000000000000000000e+00, 1.000000000000000000e+02
1.210000000000000000e+02, 3.519487000000000080e+03, 4.014358999999999924e+03, 4.134872000000000298e+03, 4.123590000000000146e+03, 2.636922999999999774e+03, 0.000000000000000000e+00, 1.000000000000000000e+00, 1.000000000000000000e+02
1.220000000000000000e+02, 3.517949000000000069e+03, 4.016409999999999854e+03, 4.127692000000000007e+03, 4.122051000000000386e+03, 2.632820999999999913e+03, 0.000000000000000000e+00, 1.000000000000000000e+00, 1.000000000000000000e+02
1.230000000000000000e+02, 3.519487000000000080e+03, 4.020512999999999920e+03, 4.122564000000000306e+03, 4.124614999999999782e+03, 2.624614999999999782e+03, 0.000000000000000000e+00, 1.000000000000000000e+00, 1.000000000000000000e+02
1.240000000000000000e+02, 3.507692000000000007e+03, 4.018461999999999989e+03, 4.116922999999999774e+03, 4.106667000000000371e+03, 2.591795000000000073e+03, 0.000000000000000000e+00, 1.000000000000000000e+00, 1.000000000000000000e+02
1.250000000000000000e+02, 3.500512999999999920e+03, 4.018461999999999989e+03, 4.127692000000000007e+03, 4.110256000000000313e+03, 2.571282000000000153e+03, 0.000000000000000000e+00, 1.000000000000000000e+00, 1.000000000000000000e+02
1.260000000000000000e+02, 3.500000000000000000e+03, 4.022563999999999851e+03, 4.144103000000000065e+03, 4.133845999999999549e+03, 2.564614999999999782e+03, 0.000000000000000000e+00, 1.000000000000000000e+00, 1.000000000000000000e+02
1.270000000000000000e+02, 3.498461999999999989e+03, 4.026666999999999916e+03, 4.157948999999999614e+03, 4.134872000000000298e+03, 2.556409999999999854e+03, 0.000000000000000000e+00, 1.000000000000000000e+00, 1.000000000000000000e+02
0.000000000000000000e+00, 3.501025999999999840e+03, 4.028717999999999847e+03, 4.167179000000000087e+03, 4.124103000000000065e+03, 2.546666999999999916e+03, 0.000000000000000000e+00, 1.000000000000000000e+00, 1.000000000000000000e+02
1.000000000000000000e+00, 3.498461999999999989e+03, 4.022563999999999851e+03, 4.156409999999999854e+03, 4.123077000000000226e+03, 2.530768999999999778e+03, 0.000000000000000000e+00, 1.000000000000000000e+00, 1.000000000000000000e+02
2.000000000000000000e+00, 3.490768999999999778e+03, 4.020512999999999920e+03, 4.137435999999999694e+03, 4.125640999999999622e+03, 2.531795000000000073e+03, 0.000000000000000000e+00, 1.000000000000000000e+00, 1.000000000000000000e+02
3.000000000000000000e+00, 3.493846000000000004e+03, 4.026666999999999916e+03, 4.133845999999999549e+03, 4.133845999999999549e+03, 2.549744000000000142e+03, 0.000000000000000000e+00, 1.000000000000000000e+00, 1.000000000000000000e+02
4.000000000000000000e+00, 3.498974000000000160e+03, 4.028717999999999847e+03, 4.135896999999999935e+03, 4.141025999999999840e+03, 2.547692000000000007e+03, 0.000000000000000000e+00, 1.000000000000000000e+00, 1.000000000000000000e+02
5.000000000000000000e+00, 3.499487000000000080e+03, 4.028717999999999847e+03, 4.137948999999999614e+03, 4.129743999999999687e+03, 2.536922999999999774e+03, 0.000000000000000000e+00, 1.000000000000000000e+00, 1.000000000000000000e+02
6.000000000000000000e+00, 3.505641000000000076e+03, 4.024614999999999782e+03, 4.134872000000000298e+03, 4.118462000000000444e+03, 2.536409999999999854e+03, 0.000000000000000000e+00, 1.000000000000000000e+00, 1.000000000000000000e+02
7.000000000000000000e+00, 3.505641000000000076e+03, 4.012307999999999993e+03, 4.118462000000000444e+03, 4.120000000000000000e+03, 2.521538000000000011e+03, 0.000000000000000000e+00, 1.000000000000000000e+00, 1.000000000000000000e+02
8.000000000000000000e+00, 3.485128000000000156e+03, 4.002050999999999931e+03, 4.107179000000000087e+03, 4.122564000000000306e+03, 2.496922999999999774e+03, 0.000000000000000000e+00, 1.000000000000000000e+00, 1.000000000000000000e+02
9.000000000000000000e+00, 3.465641000000000076e+03, 4.006153999999999996e+03, 4.116409999999999854e+03, 4.115896999999999935e+03, 2.489231000000000222e+03, 0.000000000000000000e+00, 1.000000000000000000e+00, 1.000000000000000000e+02
1.000000000000000000e+01, 3.461538000000000011e+03, 4.012307999999999993e+03, 4.130769000000000233e+03, 4.110769000000000233e+03, 2.484103000000000065e+03, 0.000000000000000000e+00, 1.000000000000000000e+00, 1.000000000000000000e+02
1.100000000000000000e+01, 3.458461999999999989e+03, 4.014358999999999924e+03, 4.134872000000000298e+03, 4.112820999999999913e+03, 2.472307999999999993e+03, 0.000000000000000000e+00, 1.000000000000000000e+00, 1.000000000000000000e+02
1.200000000000000000e+01, 3.453846000000000004e+03, 4.014358999999999924e+03, 4.126154000000000451e+03, 4.115385000000000218e+03, 2.464614999999999782e+03, 0.000000000000000000e+00, 1.000000000000000000e+00, 1.000000000000000000e+02
1.300000000000000000e+01, 3.454358999999999924e+03, 4.016409999999999854e+03, 4.124614999999999782e+03, 4.124103000000000065e+03, 2.457949000000000069e+03, 0.000000000000000000e+00, 1.000000000000000000e+00, 1.000000000000000000e+02
1.400000000000000000e+01, 3.462050999999999931e+03, 4.024614999999999782e+03, 4.140000000000000000e+03, 4.135896999999999935e+03, 2.465128000000000156e+03, 0.000000000000000000e+00, 1.000000000000000000e+00, 1.000000000000000000e+02
1.500000000000000000e+01, 3.468204999999999927e+03, 4.026666999999999916e+03, 4.146154000000000451e+03, 4.138974000000000160e+03, 2.480512999999999920e+03, 0.000000000000000000e+00, 1.000000000000000000e+00, 1.000000000000000000e+02
1.600000000000000000e+01, 3.465641000000000076e+03, 4.014358999999999924e+03, 4.135385000000000218e+03, 4.136409999999999854e+03, 2.481025999999999840e+03, 0.000000000000000000e+00, 1.000000000000000000e+00, 1.000000000000000000e+02
1.700000000000000000e+01, 3.463077000000000226e+03, 4.014358999999999924e+03, 4.134359000000000378e+03, 4.131282000000000153e+03, 2.474358999999999924e+03, 0.000000000000000000e+00, 1.000000000000000000e+00, 1.000000000000000000e+02
1.800000000000000000e+01, 3.455896999999999935e+03, 4.016409999999999854e+03, 4.135896999999999935e+03, 4.121025999999999840e+03, 2.471282000000000153e+03, 0.000000000000000000e+00, 1.000000000000000000e+00, 1.000000000000000000e+02
1.900000000000000000e+01, 3.448717999999999847e+03, 4.002050999999999931e+03, 4.127692000000000007e+03, 4.123077000000000226e+03, 2.482050999999999931e+03, 0.000000000000000000e+00, 1.000000000000000000e+00, 1.000000000000000000e+02
2.000000000000000000e+01, 3.445641000000000076e+03, 4.000000000000000000e+03, 4.127179000000000087e+03, 4.130256000000000313e+03, 2.496409999999999854e+03, 0.000000000000000000e+00, 1.000000000000000000e+00, 1.000000000000000000e+02
2.100000000000000000e+01, 3.433846000000000004e+03, 4.004103000000000065e+03, 4.132307999999999993e+03, 4.117948999999999614e+03, 2.496922999999999774e+03, 0.000000000000000000e+00, 1.000000000000000000e+00, 1.000000000000000000e+02
2.200000000000000000e+01, 3.413333000000000084e+03, 4.000000000000000000e+03, 4.126667000000000371e+03, 4.111795000000000073e+03, 2.487692000000000007e+03, 0.000000000000000000e+00, 1.000000000000000000e+00, 1.000000000000000000e+02
2.300000000000000000e+01, 3.400000000000000000e+03, 4.004103000000000065e+03, 4.123590000000000146e+03, 4.121025999999999840e+03, 2.476922999999999774e+03, 0.000000000000000000e+00, 1.000000000000000000e+00, 1.000000000000000000e+02
2.400000000000000000e+01, 3.391795000000000073e+03, 4.012307999999999993e+03, 4.137948999999999614e+03, 4.123590000000000146e+03, 2.477436000000000149e+03, 0.000000000000000000e+00, 1.000000000000000000e+00, 1.000000000000000000e+02
2.500000000000000000e+01, 3.387179000000000087e+03, 4.008204999999999927e+03, 4.143077000000000226e+03, 4.122051000000000386e+03, 2.489744000000000142e+03, 0.000000000000000000e+00, 1.000000000000000000e+00, 1.000000000000000000e+02
2.600000000000000000e+01, 3.386153999999999996e+03, 4.002050999999999931e+03, 4.118974000000000160e+03, 4.122051000000000386e+03, 2.489231000000000222e+03, 0.000000000000000000e+00, 1.000000000000000000e+00, 1.000000000000000000e+02
2.700000000000000000e+01, 3.384103000000000065e+03, 4.006153999999999996e+03, 4.107692000000000007e+03, 4.113845999999999549e+03, 2.476409999999999854e+03, 0.000000000000000000e+00, 1.000000000000000000e+00, 1.000000000000000000e+02
2.800000000000000000e+01, 3.377436000000000149e+03, 4.014358999999999924e+03, 4.125640999999999622e+03, 4.110769000000000233e+03, 2.471282000000000153e+03, 0.000000000000000000e+00, 1.000000000000000000e+00, 1.000000000000000000e+02
2.900000000000000000e+01, 3.374358999999999924e+03, 4.014358999999999924e+03, 4.138462000000000444e+03, 4.125127999999999702e+03, 2.480000000000000000e+03, 0.000000000000000000e+00, 1.000000000000000000e+00, 1.000000000000000000e+02
3.000000000000000000e+01, 3.368204999999999927e+03, 3.997949000000000069e+03, 4.127179000000000087e+03, 4.128204999999999927e+03, 2.484103000000000065e+03, 0.000000000000000000e+00, 1.000000000000000000e+00, 1.000000000000000000e+02
3.100000000000000000e+01, 3.346153999999999996e+03, 3.985641000000000076e+03, 4.109743999999999687e+03, 4.117435999999999694e+03, 2.472820999999999913e+03, 0.000000000000000000e+00, 1.000000000000000000e+00, 1.000000000000000000e+02
3.200000000000000000e+01, 3.333846000000000004e+03, 3.987692000000000007e+03, 4.111795000000000073e+03, 4.121025999999999840e+03, 2.466666999999999916e+03, 0.000000000000000000e+00, 1.000000000000000000e+00, 1.000000000000000000e+02
3.300000000000000000e+01, 3.335896999999999935e+03, 3.987692000000000007e+03, 4.120512999999999920e+03, 4.127179000000000087e+03, 2.465641000000000076e+03, 0.000000000000000000e+00, 1.000000000000000000e+00, 1.000000000000000000e+02
3.400000000000000000e+01, 3.322050999999999931e+03, 3.989744000000000142e+03, 4.124614999999999782e+03, 4.117435999999999694e+03, 2.456409999999999854e+03, 0.000000000000000000e+00, 1.000000000000000000e+00, 1.000000000000000000e+02
3.500000000000000000e+01, 3.290255999999999858e+03, 3.993846000000000004e+03, 4.126667000000000371e+03, 4.108717999999999847e+03, 2.437949000000000069e+03, 0.000000000000000000e+00, 1.000000000000000000e+00, 1.000000000000000000e+02
3.600000000000000000e+01, 3.269231000000000222e+03, 3.989744000000000142e+03, 4.122051000000000386e+03, 4.115896999999999935e+03, 2.427692000000000007e+03, 0.000000000000000000e+00, 1.000000000000000000e+00, 1.000000000000000000e+02
3.700000000000000000e+01, 3.264614999999999782e+03, 3.993846000000000004e+03, 4.127692000000000007e+03, 4.127179000000000087e+03, 2.440512999999999920e+03, 0.000000000000000000e+00, 1.000000000000000000e+00, 1.000000000000000000e+02
3.800000000000000000e+01, 3.250768999999999778e+03, 4.000000000000000000e+03, 4.138974000000000160e+03, 4.133332999999999629e+03, 2.449744000000000142e+03, 0.000000000000000000e+00, 1.000000000000000000e+00, 1.000000000000000000e+02
3.900000000000000000e+01, 3.229744000000000142e+03, 3.991795000000000073e+03, 4.131282000000000153e+03, 4.133332999999999629e+03, 2.448204999999999927e+03, 0.000000000000000000e+00, 1.000000000000000000e+00, 1.000000000000000000e+02
4.000000000000000000e+01, 3.216409999999999854e+03, 3.985641000000000076e+03, 4.116922999999999774e+03, 4.125640999999999622e+03, 2.453333000000000084e+03, 0.000000000000000000e+00, 1.000000000000000000e+00, 1.000000000000000000e+02
4.100000000000000000e+01, 3.201538000000000011e+03, 3.991795000000000073e+03, 4.121537999999999556e+03, 4.120000000000000000e+03, 2.454871999999999844e+03, 0.000000000000000000e+00, 1.000000000000000000e+00, 1.000000000000000000e+02
4.200000000000000000e+01, 3.190255999999999858e+03, 3.995896999999999935e+03, 4.123590000000000146e+03, 4.129743999999999687e+03, 2.448717999999999847e+03, 0.000000000000000000e+00, 1.000000000000000000e+00, 1.000000000000000000e+02
4.300000000000000000e+01, 3.184103000000000065e+03, 3.995896999999999935e+03, 4.114872000000000298e+03, 4.141537999999999556e+03, 2.450255999999999858e+03, 0.000000000000000000e+00, 1.000000000000000000e+00, 1.000000000000000000e+02
4.400000000000000000e+01, 3.172820999999999913e+03, 3.997949000000000069e+03, 4.113845999999999549e+03, 4.136409999999999854e+03, 2.457436000000000149e+03, 0.000000000000000000e+00, 1.000000000000000000e+00, 1.000000000000000000e+02
4.500000000000000000e+01, 3.158461999999999989e+03, 3.993846000000000004e+03, 4.112820999999999913e+03, 4.124103000000000065e+03, 2.453846000000000004e+03, 0.000000000000000000e+00, 1.000000000000000000e+00, 1.000000000000000000e+02
4.600000000000000000e+01, 3.141538000000000011e+03, 3.987692000000000007e+03, 4.106154000000000451e+03, 4.120000000000000000e+03, 2.447179000000000087e+03, 0.000000000000000000e+00, 1.000000000000000000e+00, 1.000000000000000000e+02
4.700000000000000000e+01, 3.120000000000000000e+03, 3.989744000000000142e+03, 4.109743999999999687e+03, 4.127179000000000087e+03, 2.449231000000000222e+03, 0.000000000000000000e+00, 1.000000000000000000e+00, 1.000000000000000000e+02
4.800000000000000000e+01, 3.104614999999999782e+03, 3.991795000000000073e+03, 4.123590000000000146e+03, 4.135896999999999935e+03, 2.452307999999999993e+03, 0.000000000000000000e+00, 1.000000000000000000e+00, 1.000000000000000000e+02
4.900000000000000000e+01, 3.093846000000000004e+03, 3.985641000000000076e+03, 4.129743999999999687e+03, 4.134359000000000378e+03, 2.450255999999999858e+03, 0.000000000000000000e+00, 1.000000000000000000e+00, 1.000000000000000000e+02
5.000000000000000000e+01, 3.073333000000000084e+03, 3.989744000000000142e+03, 4.123590000000000146e+03, 4.126154000000000451e+03, 2.452820999999999913e+03, 0.000000000000000000e+00, 1.000000000000000000e+00, 1.000000000000000000e+02
5.100000000000000000e+01, 3.055385000000000218e+03, 4.002050999999999931e+03, 4.119487000000000080e+03, 4.125640999999999622e+03, 2.454358999999999924e+03, 0.000000000000000000e+00, 1.000000000000000000e+00, 1.000000000000000000e+02
5.200000000000000000e+01, 3.047692000000000007e+03, 3.991795000000000073e+03, 4.124614999999999782e+03, 4.121537999999999556e+03, 2.448717999999999847e+03, 0.000000000000000000e+00, 1.000000000000000000e+00, 1.000000000000000000e+02
5.300000000000000000e+01, 3.032307999999999993e+03, 3.973333000000000084e+03, 4.123590000000000146e+03, 4.111282000000000153e+03, 2.447179000000000087e+03, 0.000000000000000000e+00, 1.000000000000000000e+00, 1.000000000000000000e+02
5.400000000000000000e+01, 3.016409999999999854e+03, 3.977436000000000149e+03, 4.120512999999999920e+03, 4.121025999999999840e+03, 2.455385000000000218e+03, 0.000000000000000000e+00, 1.000000000000000000e+00, 1.000000000000000000e+02
5.500000000000000000e+01, 3.013333000000000084e+03, 3.991795000000000073e+03, 4.126667000000000371e+03, 4.141025999999999840e+03, 2.463077000000000226e+03, 0.000000000000000000e+00, 1.000000000000000000e+00, 1.000000000000000000e+02
5.600000000000000000e+01, 2.995385000000000218e+03, 3.989744000000000142e+03, 4.121537999999999556e+03, 4.134872000000000298e+03, 2.460000000000000000e+03, 0.000000000000000000e+00, 1.000000000000000000e+00, 1.000000000000000000e+02
5.700000000000000000e+01, 2.966153999999999996e+03, 3.983590000000000146e+03, 4.105127999999999702e+03, 4.126667000000000371e+03, 2.457949000000000069e+03, 0.000000000000000000e+00, 1.000000000000000000e+00, 1.000000000000000000e+02
5.800000000000000000e+01, 2.956409999999999854e+03, 3.983590000000000146e+03, 4.107179000000000087e+03, 4.134872000000000298e+03, 2.460000000000000000e+03, 0.000000000000000000e+00, 1.000000000000000000e+00, 1.000000000000000000e+02
5.900000000000000000e+01, 2.953846000000000004e+03, 3.985641000000000076e+03, 4.122051000000000386e+03, 4.138462000000000444e+03, 2.458974000000000160e+03, 0.000000000000000000e+00, 1.000000000000000000e+00, 1.000000000000000000e+02
6.000000000000000000e+01, 2.943077000000000226e+03, 3.995896999999999935e+03, 4.127692000000000007e+03, 4.146154000000000451e+03, 2.458974000000000160e+03, 0.000000000000000000e+00, 1.000000000000000000e+00, 1.000000000000000000e+02
6.100000000000000000e+01, 2.927179000000000087e+03, 4.008204999999999927e+03, 4.122564000000000306e+03, 4.157948999999999614e+03, 2.458974000000000160e+03, 0.000000000000000000e+00, 1.000000000000000000e+00, 1.000000000000000000e+02
6.200000000000000000e+01, 2.912820999999999913e+03, 4.000000000000000000e+03, 4.110769000000000233e+03, 4.142051000000000386e+03, 2.459487000000000080e+03, 0.000000000000000000e+00, 1.000000000000000000e+00, 1.000000000000000000e+02
6.300000000000000000e+01, 2.914358999999999924e+03, 3.987692000000000007e+03, 4.104614999999999782e+03, 4.124614999999999782e+03, 2.469744000000000142e+03, 0.000000000000000000e+00, 1.000000000000000000e+00, 1.000000000000000000e+02
6.400000000000000000e+01, 2.926666999999999916e+03, 3.985641000000000076e+03, 4.107692000000000007e+03, 4.132307999999999993e+03, 2.483590000000000146e+03, 0.000000000000000000e+00, 1.000000000000000000e+00, 1.000000000000000000e+02
6.500000000000000000e+01, 2.938461999999999989e+03, 3.985641000000000076e+03, 4.109743999999999687e+03, 4.146154000000000451e+03, 2.503077000000000226e+03, 0.000000000000000000e+00, 1.000000000000000000e+00, 1.000000000000000000e+02
6.600000000000000000e+01, 2.946153999999999996e+03, 3.987692000000000007e+03, 4.111282000000000153e+03, 4.153332999999999629e+03, 2.532307999999999993e+03, 0.000000000000000000e+00, 1.000000000000000000e+00, 1.000000000000000000e+02
6.700000000000000000e+01, 2.956922999999999774e+03, 4.002050999999999931e+03, 4.120000000000000000e+03, 4.151795000000000073e+03, 2.561538000000000011e+03, 0.000000000000000000e+00, 1.000000000000000000e+00, 1.000000000000000000e+02
6.800000000000000000e+01, 2.966666999999999916e+03, 4.010255999999999858e+03, 4.132820999999999913e+03, 4.146154000000000451e+03, 2.586153999999999996e+03, 0.000000000000000000e+00, 1.000000000000000000e+00, 1.000000000000000000e+02
6.900000000000000000e+01, 2.970255999999999858e+03, 4.010255999999999858e+03, 4.136922999999999774e+03, 4.150256000000000313e+03, 2.602563999999999851e+03, 0.000000000000000000e+00, 1.000000000000000000e+00, 1.000000000000000000e+02
7.000000000000000000e+01, 2.970768999999999778e+03, 4.012307999999999993e+03, 4.134872000000000298e+03, 4.157948999999999614e+03, 2.609744000000000142e+03, 0.000000000000000000e+00, 1.000000000000000000e+00, 1.000000000000000000e+02
7.100000000000000000e+01, 2.955896999999999935e+03, 4.014358999999999924e+03, 4.133845999999999549e+03, 4.154872000000000298e+03, 2.606666999999999916e+03, 0.000000000000000000e+00, 1.000000000000000000e+00, 1.000000000000000000e+02
7.200000000000000000e+01, 2.922050999999999931e+03, 4.012307999999999993e+03, 4.138462000000000444e+03, 4.147179000000000087e+03, 2.597436000000000149e+03, 0.000000000000000000e+00, 1.000000000000000000e+00, 1.000000000000000000e+02
7.300000000000000000e+01, 2.887179000000000087e+03, 4.020512999999999920e+03, 4.140512999999999920e+03, 4.150256000000000313e+03, 2.587692000000000007e+03, 0.000000000000000000e+00, 1.000000000000000000e+00, 1.000000000000000000e+02
7.400000000000000000e+01, 2.849231000000000222e+03, 4.024614999999999782e+03, 4.128717999999999847e+03, 4.153332999999999629e+03, 2.570768999999999778e+03, 0.000000000000000000e+00, 1.000000000000000000e+00, 1.000000000000000000e+02
7.500000000000000000e+01, 2.803590000000000146e+03, 4.008204999999999927e+03, 4.109230999999999767e+03, 4.141025999999999840e+03, 2.553846000000000004e+03, 0.000000000000000000e+00, 1.000000000000000000e+00, 1.000000000000000000e+02
7.600000000000000000e+01, 2.765641000000000076e+03, 3.997949000000000069e+03, 4.100512999999999920e+03, 4.137948999999999614e+03, 2.544103000000000065e+03, 0.000000000000000000e+00, 1.000000000000000000e+00, 1.000000000000000000e+02
7.700000000000000000e+01, 2.741538000000000011e+03, 4.006153999999999996e+03, 4.101537999999999556e+03, 4.150256000000000313e+03, 2.546153999999999996e+03, 0.000000000000000000e+00, 1.000000000000000000e+00, 1.000000000000000000e+02
7.800000000000000000e+01, 2.716409999999999854e+03, 4.010255999999999858e+03, 4.105640999999999622e+03, 4.147179000000000087e+03, 2.549231000000000222e+03, 0.000000000000000000e+00, 1.000000000000000000e+00, 1.000000000000000000e+02
7.900000000000000000e+01, 2.688717999999999847e+03, 4.016409999999999854e+03, 4.110769000000000233e+03, 4.135896999999999935e+03, 2.547179000000000087e+03, 0.000000000000000000e+00, 1.000000000000000000e+00, 1.000000000000000000e+02
8.000000000000000000e+01, 2.665128000000000156e+03, 4.028717999999999847e+03, 4.112307999999999993e+03, 4.143077000000000226e+03, 2.548204999999999927e+03, 0.000000000000000000e+00, 1.000000000000000000e+00, 1.000000000000000000e+02
8.100000000000000000e+01, 2.641025999999999840e+03, 4.026666999999999916e+03, 4.111795000000000073e+03, 4.144103000000000065e+03, 2.548204999999999927e+03, 0.000000000000000000e+00, 1.000000000000000000e+00, 1.000000000000000000e+02
8.200000000000000000e+01, 2.613333000000000084e+03, 4.008204999999999927e+03, 4.113845999999999549e+03, 4.134872000000000298e+03, 2.545128000000000156e+03, 0.000000000000000000e+00, 1.000000000000000000e+00, 1.000000000000000000e+02
8.300000000000000000e+01, 2.582050999999999931e+03, 4.014358999999999924e+03, 4.119487000000000080e+03, 4.145640999999999622e+03, 2.547692000000000007e+03, 0.000000000000000000e+00, 1.000000000000000000e+00, 1.000000000000000000e+02
8.400000000000000000e+01, 2.539487000000000080e+03, 4.030768999999999778e+03, 4.124103000000000065e+03, 4.152307999999999993e+03, 2.542050999999999931e+03, 0.000000000000000000e+00, 1.000000000000000000e+00, 1.000000000000000000e+02
8.500000000000000000e+01, 2.501025999999999840e+03, 4.014358999999999924e+03, 4.124103000000000065e+03, 4.140000000000000000e+03, 2.531282000000000153e+03, 0.000000000000000000e+00, 1.000000000000000000e+00, 1.000000000000000000e+02
8.600000000000000000e+01, 2.482563999999999851e+03, 3.989744000000000142e+03, 4.118462000000000444e+03, 4.132820999999999913e+03, 2.536922999999999774e+03, 0.000000000000000000e+00, 1.000000000000000000e+00, 1.000000000000000000e+02
8.700000000000000000e+01, 2.465641000000000076e+03, 3.987692000000000007e+03, 4.102051000000000386e+03, 4.136922999999999774e+03, 2.542050999999999931e+03, 0.000000000000000000e+00, 1.000000000000000000e+00, 1.000000000000000000e+02
8.800000000000000000e+01, 2.442050999999999931e+03, 3.987692000000000007e+03, 4.083077000000000226e+03, 4.141025999999999840e+03, 2.533846000000000004e+03, 0.000000000000000000e+00, 1.000000000000000000e+00, 1.000000000000000000e+02
8.900000000000000000e+01, 2.429231000000000222e+03, 3.977436000000000149e+03, 4.085641000000000076e+03, 4.137435999999999694e+03, 2.534358999999999924e+03, 0.000000000000000000e+00, 1.000000000000000000e+00, 1.000000000000000000e+02
9.000000000000000000e+01, 2.428204999999999927e+03, 3.981538000000000011e+03, 4.108204999999999927e+03, 4.138974000000000160e+03, 2.549231000000000222e+03, 0.000000000000000000e+00, 1.000000000000000000e+00, 1.000000000000000000e+02
9.100000000000000000e+01, 2.420000000000000000e+03, 3.993846000000000004e+03, 4.111795000000000073e+03, 4.148204999999999927e+03, 2.557436000000000149e+03, 0.000000000000000000e+00, 1.000000000000000000e+00, 1.000000000000000000e+02
9.200000000000000000e+01, 2.401538000000000011e+03, 3.997949000000000069e+03, 4.104614999999999782e+03, 4.151282000000000153e+03, 2.556922999999999774e+03, 0.000000000000000000e+00, 1.000000000000000000e+00, 1.000000000000000000e+02
9.300000000000000000e+01, 2.388717999999999847e+03, 4.000000000000000000e+03, 4.112307999999999993e+03, 4.141025999999999840e+03, 2.558974000000000160e+03, 0.000000000000000000e+00, 1.000000000000000000e+00, 1.000000000000000000e+02
9.400000000000000000e+01, 2.388717999999999847e+03, 4.000000000000000000e+03, 4.111795000000000073e+03, 4.135896999999999935e+03, 2.561538000000000011e+03, 0.000000000000000000e+00, 1.000000000000000000e+00, 1.000000000000000000e+02
9.500000000000000000e+01, 2.384614999999999782e+03, 4.000000000000000000e+03, 4.098462000000000444e+03, 4.135896999999999935e+03, 2.562563999999999851e+03, 0.000000000000000000e+00, 1.000000000000000000e+00, 1.000000000000000000e+02
9.600000000000000000e+01, 2.369744000000000142e+03, 4.000000000000000000e+03, 4.087692000000000007e+03, 4.123077000000000226e+03, 2.558461999999999989e+03, 0.000000000000000000e+00, 1.000000000000000000e+00, 1.000000000000000000e+02
9.700000000000000000e+01, 2.355385000000000218e+03, 3.997949000000000069e+03, 4.082050999999999931e+03, 4.114872000000000298e+03, 2.552307999999999993e+03, 0.000000000000000000e+00, 1.000000000000000000e+00, 1.000000000000000000e+02
9.800000000000000000e+01, 2.342563999999999851e+03, 3.995896999999999935e+03, 4.078461999999999989e+03, 4.122564000000000306e+03, 2.552820999999999913e+03, 0.000000000000000000e+00, 1.000000000000000000e+00, 1.000000000000000000e+02
9.900000000000000000e+01, 2.322563999999999851e+03, 3.993846000000000004e+03, 4.068717999999999847e+03, 4.123077000000000226e+03, 2.549231000000000222e+03, 0.000000000000000000e+00, 1.000000000000000000e+00, 1.000000000000000000e+02
1.000000000000000000e+02, 2.316922999999999774e+03, 3.991795000000000073e+03, 4.055385000000000218e+03, 4.115385000000000218e+03, 2.539487000000000080e+03, 0.000000000000000000e+00, 1.000000000000000000e+00, 1.000000000000000000e+02
1.010000000000000000e+02, 2.330255999999999858e+03, 4.000000000000000000e+03, 4.060512999999999920e+03, 4.122051000000000386e+03, 2.541538000000000011e+03, 0.000000000000000000e+00, 1.000000000000000000e+00, 1.000000000000000000e+02
1.020000000000000000e+02, 2.336409999999999854e+03, 4.014358999999999924e+03, 4.076922999999999774e+03, 4.130769000000000233e+03, 2.545641000000000076e+03, 0.000000000000000000e+00, 1.000000000000000000e+00, 1.000000000000000000e+02
1.030000000000000000e+02, 2.327179000000000087e+03, 4.020512999999999920e+03, 4.084614999999999782e+03, 4.131282000000000153e+03, 2.533333000000000084e+03, 0.000000000000000000e+00, 1.000000000000000000e+00, 1.000000000000000000e+02
1.040000000000000000e+02, 2.317949000000000069e+03, 4.020512999999999920e+03, 4.085128000000000156e+03, 4.130256000000000313e+03, 2.507692000000000007e+03, 0.000000000000000000e+00, 1.000000000000000000e+00, 1.000000000000000000e+02
1.050000000000000000e+02, 2.328204999999999927e+03, 4.024614999999999782e+03, 4.085641000000000076e+03, 4.133332999999999629e+03, 2.492820999999999913e+03, 0.000000000000000000e+00, 1.000000000000000000e+00, 1.000000000000000000e+02
1.060000000000000000e+02, 2.341025999999999840e+03, 4.028717999999999847e+03, 4.085128000000000156e+03, 4.134359000000000378e+03, 2.493333000000000084e+03, 0.000000000000000000e+00, 1.000000000000000000e+00, 1.000000000000000000e+02
1.070000000000000000e+02, 2.330768999999999778e+03, 4.030768999999999778e+03, 4.076922999999999774e+03, 4.125127999999999702e+03, 2.486666999999999916e+03, 0.000000000000000000e+00, 1.000000000000000000e+00, 1.000000000000000000e+02
1.080000000000000000e+02, 2.322563999999999851e+03, 4.028717999999999847e+03, 4.069231000000000222e+03, 4.115896999999999935e+03, 2.478974000000000160e+03, 0.000000000000000000e+00, 1.000000000000000000e+00, 1.000000000000000000e+02
1.090000000000000000e+02, 2.330768999999999778e+03, 4.034871999999999844e+03, 4.075385000000000218e+03, 4.118974000000000160e+03, 2.484614999999999782e+03, 0.000000000000000000e+00, 1.000000000000000000e+00, 1.000000000000000000e+02
1.100000000000000000e+02, 2.331282000000000153e+03, 4.059487000000000080e+03, 4.089744000000000142e+03, 4.125127999999999702e+03, 2.495896999999999935e+03, 0.000000000000000000e+00, 1.000000000000000000e+00, 1.000000000000000000e+02
1.110000000000000000e+02, 2.325128000000000156e+03, 4.075896999999999935e+03, 4.103590000000000146e+03, 4.127692000000000007e+03, 2.503077000000000226e+03, 0.000000000000000000e+00, 1.000000000000000000e+00, 1.000000000000000000e+02
1.120000000000000000e+02, 2.334358999999999924e+03, 4.080000000000000000e+03, 4.109230999999999767e+03, 4.133332999999999629e+03, 2.511282000000000153e+03, 0.000000000000000000e+00, 1.000000000000000000e+00, 1.000000000000000000e+02
1.130000000000000000e+02, 2.352820999999999913e+03, 4.104614999999999782e+03, 4.097435999999999694e+03, 4.143590000000000146e+03, 2.537436000000000149e+03, 0.000000000000000000e+00, 1.000000000000000000e+00, 1.000000000000000000e+02
1.140000000000000000e+02, 2.355385000000000218e+03, 4.139487000000000080e+03, 4.083077000000000226e+03, 4.143590000000000146e+03, 2.556922999999999774e+03, 0.000000000000000000e+00, 1.000000000000000000e+00, 1.000000000000000000e+02
1.150000000000000000e+02, 2.341538000000000011e+03, 4.153845999999999549e+03, 4.084103000000000065e+03, 4.138974000000000160e+03, 2.550255999999999858e+03, 0.000000000000000000e+00, 1.000000000000000000e+00, 1.000000000000000000e+02
1.160000000000000000e+02, 2.342563999999999851e+03, 4.162051000000000386e+03, 4.086666999999999916e+03, 4.140512999999999920e+03, 2.562050999999999931e+03, 0.000000000000000000e+00, 1.000000000000000000e+00, 1.000000000000000000e+02
1.170000000000000000e+02, 2.353846000000000004e+03, 4.178462000000000444e+03, 4.074358999999999924e+03, 4.138462000000000444e+03, 2.592307999999999993e+03, 0.000000000000000000e+00, 1.000000000000000000e+00, 1.000000000000000000e+02
1.180000000000000000e+02, 2.355896999999999935e+03, 4.188717999999999847e+03, 4.069744000000000142e+03, 4.131282000000000153e+03, 2.604103000000000065e+03, 0.000000000000000000e+00, 1.000000000000000000e+00, 1.000000000000000000e+02
1.190000000000000000e+02, 2.358974000000000160e+03, 4.190769000000000233e+03, 4.074871999999999844e+03, 4.132820999999999913e+03, 2.604103000000000065e+03, 0.000000000000000000e+00, 1.000000000000000000e+00, 1.000000000000000000e+02
1.200000000000000000e+02, 2.365641000000000076e+03, 4.196922999999999774e+03, 4.065128000000000156e+03, 4.132307999999999993e+03, 2.603077000000000226e+03, 0.000000000000000000e+00, 1.000000000000000000e+00, 1.000000000000000000e+02
1.210000000000000000e+02, 2.370255999999999858e+03, 4.207179000000000087e+03, 4.056922999999999774e+03, 4.117435999999999694e+03, 2.597436000000000149e+03, 0.000000000000000000e+00, 1.000000000000000000e+00, 1.000000000000000000e+02
1.220000000000000000e+02, 2.380512999999999920e+03, 4.211282000000000153e+03, 4.058974000000000160e+03, 4.111795000000000073e+03, 2.591282000000000153e+03, 0.000000000000000000e+00, 1.000000000000000000e+00, 1.000000000000000000e+02
1.230000000000000000e+02, 2.395896999999999935e+03, 4.201025999999999840e+03, 4.047692000000000007e+03, 4.121537999999999556e+03, 2.591282000000000153e+03, 0.000000000000000000e+00, 1.000000000000000000e+00, 1.000000000000000000e+02
1.240000000000000000e+02, 2.399487000000000080e+03, 4.203077000000000226e+03, 4.036922999999999774e+03, 4.126667000000000371e+03, 2.596922999999999774e+03, 0.000000000000000000e+00, 1.000000000000000000e+00, 1.000000000000000000e+02
1.250000000000000000e+02, 2.411282000000000153e+03, 4.217435999999999694e+03, 4.052820999999999913e+03, 4.129230999999999767e+03, 2.624103000000000065e+03, 0.000000000000000000e+00, 1.000000000000000000e+00, 1.000000000000000000e+02
1.260000000000000000e+02, 2.444614999999999782e+03, 4.217435999999999694e+03, 4.070768999999999778e+03, 4.141025999999999840e+03, 2.664614999999999782e+03, 0.000000000000000000e+00, 1.000000000000000000e+00, 1.000000000000000000e+02
1.270000000000000000e+02, 2.468204999999999927e+03, 4.203077000000000226e+03, 4.064103000000000065e+03, 4.152820999999999913e+03, 2.678974000000000160e+03, 0.000000000000000000e+00, 1.000000000000000000e+00, 1.000000000000000000e+02
0.000000000000000000e+00, 2.481025999999999840e+03, 4.198974000000000160e+03, 4.050768999999999778e+03, 4.148204999999999927e+03, 2.683077000000000226e+03, 0.000000000000000000e+00, 1.000000000000000000e+00, 1.000000000000000000e+02
1.000000000000000000e+00, 2.492820999999999913e+03, 4.201025999999999840e+03, 4.039487000000000080e+03, 4.136922999999999774e+03, 2.700000000000000000e+03, 0.000000000000000000e+00, 1.000000000000000000e+00, 1.000000000000000000e+02
2.000000000000000000e+00, 2.495385000000000218e+03, 4.203077000000000226e+03, 4.030255999999999858e+03, 4.137948999999999614e+03, 2.706153999999999996e+03, 0.000000000000000000e+00, 1.000000000000000000e+00, 1.000000000000000000e+02
3.000000000000000000e+00, 2.501538000000000011e+03, 4.203077000000000226e+03, 4.027179000000000087e+03, 4.140000000000000000e+03, 2.710768999999999778e+03, 0.000000000000000000e+00, 1.000000000000000000e+00, 1.000000000000000000e+02
4.000000000000000000e+00, 2.518974000000000160e+03, 4.209230999999999767e+03, 4.018461999999999989e+03, 4.126667000000000371e+03, 2.721538000000000011e+03, 0.000000000000000000e+00, 1.000000000000000000e+00, 1.000000000000000000e+02
5.000000000000000000e+00, 2.526153999999999996e+03, 4.211282000000000153e+03, 4.006666999999999916e+03, 4.121025999999999840e+03, 2.723590000000000146e+03, 0.000000000000000000e+00, 1.000000000000000000e+00, 1.000000000000000000e+02
6.000000000000000000e+00, 2.535385000000000218e+03, 4.207179000000000087e+03, 4.008717999999999847e+03, 4.131795000000000073e+03, 2.735385000000000218e+03, 0.000000000000000000e+00, 1.000000000000000000e+00, 1.000000000000000000e+02
7.000000000000000000e+00, 2.560512999999999920e+03, 4.211282000000000153e+03, 4.013333000000000084e+03, 4.135385000000000218e+03, 2.761025999999999840e+03, 0.000000000000000000e+00, 1.000000000000000000e+00, 1.000000000000000000e+02
8.000000000000000000e+00, 2.585128000000000156e+03, 4.221537999999999556e+03, 4.007179000000000087e+03, 4.140000000000000000e+03, 2.780512999999999920e+03, 0.000000000000000000e+00, 1.000000000000000000e+00, 1.000000000000000000e+02
9.000000000000000000e+00, 2.599487000000000080e+03, 4.215385000000000218e+03, 4.001538000000000011e+03, 4.144103000000000065e+03, 2.798974000000000160e+03, 0.000000000000000000e+00, 1.000000000000000000e+00, 1.000000000000000000e+02
1.000000000000000000e+01, 2.611282000000000153e+03, 4.207179000000000087e+03, 4.002563999999999851e+03, 4.133845999999999549e+03, 2.811795000000000073e+03, 0.000000000000000000e+00, 1.000000000000000000e+00, 1.000000000000000000e+02
1.100000000000000000e+01, 2.619487000000000080e+03, 4.211282000000000153e+03, 4.006666999999999916e+03, 4.127692000000000007e+03, 2.817436000000000149e+03, 0.000000000000000000e+00, 1.000000000000000000e+00, 1.000000000000000000e+02
1.200000000000000000e+01, 2.635896999999999935e+03, 4.207179000000000087e+03, 4.006666999999999916e+03, 4.137948999999999614e+03, 2.846666999999999916e+03, 0.000000000000000000e+00, 1.000000000000000000e+00, 1.000000000000000000e+02
1.300000000000000000e+01, 2.665641000000000076e+03, 4.192820999999999913e+03, 3.997436000000000149e+03, 4.144103000000000065e+03, 2.893333000000000084e+03, 0.000000000000000000e+00, 1.000000000000000000e+00, 1.000000000000000000e+02
1.400000000000000000e+01, 2.684103000000000065e+03, 4.201025999999999840e+03, 3.988204999999999927e+03, 4.141025999999999840e+03, 2.914358999999999924e+03, 0.000000000000000000e+00, 1.000000000000000000e+00, 1.000000000000000000e+02
1.500000000000000000e+01, 2.694358999999999924e+03, 4.221537999999999556e+03, 3.987179000000000087e+03, 4.137948999999999614e+03, 2.925128000000000156e+03, 0.000000000000000000e+00, 1.000000000000000000e+00, 1.000000000000000000e+02
1.600000000000000000e+01, 2.711282000000000153e+03, 4.217435999999999694e+03, 3.967179000000000087e+03, 4.127692000000000007e+03, 2.941025999999999840e+03, 0.000000000000000000e+00, 1.000000000000000000e+00, 1.000000000000000000e+02
1.700000000000000000e+01, 2.723590000000000146e+03, 4.203077000000000226e+03, 3.940000000000000000e+03, 4.114359000000000378e+03, 2.956922999999999774e+03, 0.000000000000000000e+00, 1.000000000000000000e+00, 1.000000000000000000e+02
1.800000000000000000e+01, 2.736409999999999854e+03, 4.207179000000000087e+03, 3.940512999999999920e+03, 4.115385000000000218e+03, 2.986666999999999916e+03, 0.000000000000000000e+00, 1.000000000000000000e+00, 1.000000000000000000e+02
1.900000000000000000e+01, 2.753846000000000004e+03, 4.207179000000000087e+03, 3.944103000000000065e+03, 4.122051000000000386e+03, 3.002050999999999931e+03, 0.000000000000000000e+00, 1.000000000000000000e+00, 1.000000000000000000e+02
2.000000000000000000e+01, 2.764614999999999782e+03, 4.188717999999999847e+03, 3.937949000000000069e+03, 4.134872000000000298e+03, 2.992307999999999993e+03, 0.000000000000000000e+00, 1.000000000000000000e+00, 1.000000000000000000e+02
2.100000000000000000e+01, 2.775385000000000218e+03, 4.182564000000000306e+03, 3.946666999999999916e+03, 4.151282000000000153e+03, 3.003590000000000146e+03, 0.000000000000000000e+00, 1.000000000000000000e+00, 1.000000000000000000e+02
2.200000000000000000e+01, 2.799487000000000080e+03, 4.184614999999999782e+03, 3.966153999999999996e+03, 4.153332999999999629e+03, 3.027692000000000007e+03, 0.000000000000000000e+00, 1.000000000000000000e+00, 1.000000000000000000e+02
2.300000000000000000e+01, 2.829744000000000142e+03, 4.182564000000000306e+03, 3.975385000000000218e+03, 4.158462000000000444e+03, 3.043590000000000146e+03, 0.000000000000000000e+00, 1.000000000000000000e+00, 1.000000000000000000e+02
2.400000000000000000e+01, 2.843590000000000146e+03, 4.182564000000000306e+03, 3.974358999999999924e+03, 4.166667000000000371e+03, 3.057436000000000149e+03, 0.000000000000000000e+00, 1.000000000000000000e+00, 1.000000000000000000e+02
2.500000000000000000e+01, 2.847179000000000087e+03, 4.184614999999999782e+03, 3.974871999999999844e+03, 4.161537999999999556e+03, 3.069231000000000222e+03, 0.000000000000000000e+00, 1.000000000000000000e+00, 1.000000000000000000e+02
2.600000000000000000e+01, 2.868204999999999927e+03, 4.192820999999999913e+03, 3.979487000000000080e+03, 4.154359000000000378e+03, 3.076409999999999854e+03, 0.000000000000000000e+00, 1.000000000000000000e+00, 1.000000000000000000e+02
2.700000000000000000e+01, 2.892820999999999913e+03, 4.194872000000000298e+03, 3.972820999999999913e+03, 4.150256000000000313e+03, 3.079487000000000080e+03, 0.000000000000000000e+00, 1.000000000000000000e+00, 1.000000000000000000e+02
2.800000000000000000e+01, 2.898974000000000160e+03, 4.190769000000000233e+03, 3.962563999999999851e+03, 4.141025999999999840e+03, 3.082050999999999931e+03, 0.000000000000000000e+00, 1.000000000000000000e+00, 1.000000000000000000e+02
2.900000000000000000e+01, 2.911795000000000073e+03, 4.192820999999999913e+03, 3.962050999999999931e+03, 4.135385000000000218e+03, 3.096922999999999774e+03, 0.000000000000000000e+00, 1.000000000000000000e+00, 1.000000000000000000e+02
3.000000000000000000e+01, 2.936922999999999774e+03, 4.209230999999999767e+03, 3.960512999999999920e+03, 4.136409999999999854e+03, 3.126153999999999996e+03, 0.000000000000000000e+00, 1.000000000000000000e+00, 1.000000000000000000e+02
3.100000000000000000e+01, 2.962050999999999931e+03, 4.217435999999999694e+03, 3.964103000000000065e+03, 4.135896999999999935e+03, 3.164103000000000065e+03, 0.000000000000000000e+00, 1.000000000000000000e+00, 1.000000000000000000e+02
3.200000000000000000e+01, 2.983590000000000146e+03, 4.217435999999999694e+03, 3.984103000000000065e+03, 4.135385000000000218e+03, 3.205128000000000156e+03, 0.000000000000000000e+00, 1.000000000000000000e+00, 1.000000000000000000e+02
3.300000000000000000e+01, 2.997436000000000149e+03, 4.211282000000000153e+03, 3.991282000000000153e+03, 4.135385000000000218e+03, 3.223590000000000146e+03, 0.000000000000000000e+00, 1.000000000000000000e+00, 1.000000000000000000e+02
3.400000000000000000e+01, 3.006666999999999916e+03, 4.203077000000000226e+03, 3.983077000000000226e+03, 4.130769000000000233e+03, 3.210768999999999778e+03, 0.000000000000000000e+00, 1.000000000000000000e+00, 1.000000000000000000e+02
3.500000000000000000e+01, 3.019487000000000080e+03, 4.198974000000000160e+03, 3.984103000000000065e+03, 4.135896999999999935e+03, 3.208717999999999847e+03, 0.000000000000000000e+00, 1.000000000000000000e+00, 1.000000000000000000e+02
3.600000000000000000e+01, 3.034871999999999844e+03, 4.196922999999999774e+03, 3.989231000000000222e+03, 4.150256000000000313e+03, 3.234871999999999844e+03, 0.000000000000000000e+00, 1.000000000000000000e+00, 1.000000000000000000e+02
3.700000000000000000e+01, 3.055385000000000218e+03, 4.196922999999999774e+03, 3.993333000000000084e+03, 4.162051000000000386e+03, 3.260512999999999920e+03, 0.000000000000000000e+00, 1.000000000000000000e+00, 1.000000000000000000e+02
3.800000000000000000e+01, 3.084614999999999782e+03, 4.203077000000000226e+03, 4.004614999999999782e+03, 4.168204999999999927e+03, 3.282050999999999931e+03, 0.000000000000000000e+00, 1.000000000000000000e+00, 1.000000000000000000e+02
3.900000000000000000e+01, 3.113333000000000084e+03, 4.211282000000000153e+03, 4.002563999999999851e+03, 4.172820999999999913e+03, 3.305641000000000076e+03, 0.000000000000000000e+00, 1.000000000000000000e+00, 1.000000000000000000e+02
4.000000000000000000e+01, 3.134871999999999844e+03, 4.211282000000000153e+03, 3.987179000000000087e+03, 4.167179000000000087e+03, 3.320512999999999920e+03, 0.000000000000000000e+00, 1.000000000000000000e+00, 1.000000000000000000e+02
4.100000000000000000e+01, 3.149231000000000222e+03, 4.211282000000000153e+03, 3.983077000000000226e+03, 4.151795000000000073e+03, 3.331282000000000153e+03, 0.000000000000000000e+00, 1.000000000000000000e+00, 1.000000000000000000e+02
4.200000000000000000e+01, 3.158461999999999989e+03, 4.217435999999999694e+03, 3.992307999999999993e+03, 4.147179000000000087e+03, 3.348204999999999927e+03, 0.000000000000000000e+00, 1.000000000000000000e+00, 1.000000000000000000e+02
4.300000000000000000e+01, 3.168204999999999927e+03, 4.221537999999999556e+03, 3.997436000000000149e+03, 4.148204999999999927e+03, 3.363590000000000146e+03, 0.000000000000000000e+00, 1.000000000000000000e+00, 1.000000000000000000e+02
4.400000000000000000e+01, 3.179487000000000080e+03, 4.221537999999999556e+03, 3.995896999999999935e+03, 4.141025999999999840e+03, 3.380000000000000000e+03, 0.000000000000000000e+00, 1.000000000000000000e+00, 1.000000000000000000e+02
4.500000000000000000e+01, 3.195385000000000218e+03, 4.217435999999999694e+03, 3.994358999999999924e+03, 4.139487000000000080e+03, 3.404614999999999782e+03, 0.000000000000000000e+00, 1.000000000000000000e+00, 1.000000000000000000e+02
4.600000000000000000e+01, 3.226153999999999996e+03, 4.221537999999999556e+03, 3.992820999999999913e+03, 4.144614999999999782e+03, 3.435385000000000218e+03, 1.000000000000000000e+00, 0.000000000000000000e+00, 1.000000000000000000e+02
4.700000000000000000e+01, 3.258974000000000160e+03, 4.225640999999999622e+03, 3.986666999999999916e+03, 4.147692000000000007e+03, 3.457949000000000069e+03, 1.000000000000000000e+00, 0.000000000000000000e+00, 1.000000000000000000e+02
4.800000000000000000e+01, 3.285128000000000156e+03, 4.221537999999999556e+03, 3.987179000000000087e+03, 4.151795000000000073e+03, 3.473333000000000084e+03, 1.000000000000000000e+00, 0.000000000000000000e+00, 1.000000000000000000e+02
4.900000000000000000e+01, 3.318974000000000160e+03, 4.213332999999999629e+03, 3.998974000000000160e+03, 4.155385000000000218e+03, 3.494871999999999844e+03, 1.000000000000000000e+00, 0.000000000000000000e+00, 1.000000000000000000e+02
5.000000000000000000e+01, 3.349231000000000222e+03, 4.213332999999999629e+03, 4.002563999999999851e+03, 4.150769000000000233e+03, 3.508204999999999927e+03, 1.000000000000000000e+00, 0.000000000000000000e+00, 1.000000000000000000e+02
