COUNTER, AF3, T7, Pz, T8, AF4, MARKERS['YES','NO'], TICK, ContactQuality
1.070000000000000000e+02, 5.041025999999999840e+03, 4.217435999999999694e+03, 4.142564000000000306e+03, 4.190256000000000313e+03, 5.398462000000000444e+03, 1.000000000000000000e+00, 1.000000000000000000e+00, 1.000000000000000000e+02
1.080000000000000000e+02, 5.028717999999999847e+03, 4.219487000000000080e+03, 4.138974000000000160e+03, 4.190769000000000233e+03, 5.381537999999999556e+03, 1.000000000000000000e+00, 1.000000000000000000e+00, 1.000000000000000000e+02
1.090000000000000000e+02, 5.015896999999999935e+03, 4.209230999999999767e+03, 4.131282000000000153e+03, 4.178974000000000160e+03, 5.378974000000000160e+03, 1.000000000000000000e+00, 1.000000000000000000e+00, 1.000000000000000000e+02
1.100000000000000000e+02, 4.995385000000000218e+03, 4.203077000000000226e+03, 4.118462000000000444e+03, 4.166667000000000371e+03, 5.361537999999999556e+03, 1.000000000000000000e+00, 1.000000000000000000e+00, 1.000000000000000000e+02
1.110000000000000000e+02, 4.971795000000000073e+03, 4.196922999999999774e+03, 4.115385000000000218e+03, 4.166154000000000451e+03, 5.342564000000000306e+03, 1.000000000000000000e+00, 1.000000000000000000e+00, 1.000000000000000000e+02
1.120000000000000000e+02, 4.967179000000000087e+03, 4.186667000000000371e+03, 4.121025999999999840e+03, 4.162564000000000306e+03, 5.341025999999999840e+03, 1.000000000000000000e+00, 1.000000000000000000e+00, 1.000000000000000000e+02
1.130000000000000000e+02, 4.966667000000000371e+03, 4.178462000000000444e+03, 4.115896999999999935e+03, 4.161025999999999840e+03, 5.325127999999999702e+03, 1.000000000000000000e+00, 1.000000000000000000e+00, 1.000000000000000000e+02
1.140000000000000000e+02, 4.951282000000000153e+03, 4.182564000000000306e+03, 4.111795000000000073e+03, 4.173845999999999549e+03, 5.302564000000000306e+03, 1.000000000000000000e+00, 1.000000000000000000e+00, 1.000000000000000000e+02
1.150000000000000000e+02, 4.941537999999999556e+03, 4.192820999999999913e+03, 4.121025999999999840e+03, 4.186667000000000371e+03, 5.303077000000000226e+03, 1.000000000000000000e+00, 1.000000000000000000e+00, 1.000000000000000000e+02
1.160000000000000000e+02, 4.950769000000000233e+03, 4.198974000000000160e+03, 4.130769000000000233e+03, 4.186667000000000371e+03, 5.313845999999999549e+03, 1.000000000000000000e+00, 1.000000000000000000e+00, 1.000000000000000000e+02
1.170000000000000000e+02, 4.947692000000000007e+03, 4.194872000000000298e+03, 4.125640999999999622e+03, 4.187692000000000007e+03, 5.306154000000000451e+03, 1.000000000000000000e+00, 1.000000000000000000e+00, 1.000000000000000000e+02
1.180000000000000000e+02, 4.933332999999999629e+03, 4.186667000000000371e+03, 4.114872000000000298e+03, 4.193845999999999549e+03, 5.291282000000000153e+03, 1.000000000000000000e+00, 1.000000000000000000e+00, 1.000000000000000000e+02
1.190000000000000000e+02, 4.928717999999999847e+03, 4.182564000000000306e+03, 4.122051000000000386e+03, 4.196409999999999854e+03, 5.285640999999999622e+03, 1.000000000000000000e+00, 1.000000000000000000e+00, 1.000000000000000000e+02
1.200000000000000000e+02, 4.918974000000000160e+03, 4.186667000000000371e+03, 4.131282000000000153e+03, 4.194872000000000298e+03, 5.275385000000000218e+03, 1.000000000000000000e+00, 1.000000000000000000e+00, 1.000000000000000000e+02
1.210000000000000000e+02, 4.901025999999999840e+03, 4.192820999999999913e+03, 4.122051000000000386e+03, 4.189743999999999687e+03, 5.263590000000000146e+03, 1.000000000000000000e+00, 1.000000000000000000e+00, 1.000000000000000000e+02
1.220000000000000000e+02, 4.891795000000000073e+03, 4.184614999999999782e+03, 4.112307999999999993e+03, 4.182564000000000306e+03, 5.244614999999999782e+03, 1.000000000000000000e+00, 1.000000000000000000e+00, 1.000000000000000000e+02
1.230000000000000000e+02, 4.885127999999999702e+03, 4.170256000000000313e+03, 4.117435999999999694e+03, 4.179487000000000080e+03, 5.216922999999999774e+03, 1.000000000000000000e+00, 1.000000000000000000e+00, 1.000000000000000000e+02
1.240000000000000000e+02, 4.873845999999999549e+03, 4.170256000000000313e+03, 4.130769000000000233e+03, 4.194359000000000378e+03, 5.211282000000000153e+03, 1.000000000000000000e+00, 1.000000000000000000e+00, 1.000000000000000000e+02
1.250000000000000000e+02, 4.858974000000000160e+03, 4.168204999999999927e+03, 4.137435999999999694e+03, 4.203077000000000226e+03, 5.213332999999999629e+03, 1.000000000000000000e+00, 1.000000000000000000e+00, 1.000000000000000000e+02
1.260000000000000000e+02, 4.853332999999999629e+03, 4.162051000000000386e+03, 4.143077000000000226e+03, 4.197435999999999694e+03, 5.194359000000000378e+03, 1.000000000000000000e+00, 1.000000000000000000e+00, 1.000000000000000000e+02
1.270000000000000000e+02, 4.845127999999999702e+03, 4.162051000000000386e+03, 4.155896999999999935e+03, 4.201537999999999556e+03, 5.170769000000000233e+03, 1.000000000000000000e+00, 1.000000000000000000e+00, 1.000000000000000000e+02
0.000000000000000000e+00, 4.808717999999999847e+03, 4.160000000000000000e+03, 4.155896999999999935e+03, 4.192820999999999913e+03, 5.136409999999999854e+03, 1.000000000000000000e+00, 1.000000000000000000e+00, 1.000000000000000000e+02
1.000000000000000000e+00, 4.766667000000000371e+03, 4.153845999999999549e+03, 4.137435999999999694e+03, 4.172820999999999913e+03, 5.089743999999999687e+03, 1.000000000000000000e+00, 1.000000000000000000e+00, 1.000000000000000000e+02
2.000000000000000000e+00, 4.749230999999999767e+03, 4.160000000000000000e+03, 4.127692000000000007e+03, 4.178974000000000160e+03, 5.062564000000000306e+03, 1.000000000000000000e+00, 1.000000000000000000e+00, 1.000000000000000000e+02
3.000000000000000000e+00, 4.745640999999999622e+03, 4.170256000000000313e+03, 4.141025999999999840e+03, 4.200000000000000000e+03, 5.067692000000000007e+03, 1.000000000000000000e+00, 1.000000000000000000e+00, 1.000000000000000000e+02
4.000000000000000000e+00, 4.738974000000000160e+03, 4.176409999999999854e+03, 4.145640999999999622e+03, 4.194359000000000378e+03, 5.069743999999999687e+03, 1.000000000000000000e+00, 1.000000000000000000e+00, 1.000000000000000000e+02
5.000000000000000000e+00, 4.724103000000000065e+03, 4.184614999999999782e+03, 4.122051000000000386e+03, 4.175896999999999935e+03, 5.037435999999999694e+03, 1.000000000000000000e+00, 1.000000000000000000e+00, 1.000000000000000000e+02
6.000000000000000000e+00, 4.707179000000000087e+03, 4.186667000000000371e+03, 4.104614999999999782e+03, 4.172820999999999913e+03, 5.003077000000000226e+03, 1.000000000000000000e+00, 1.000000000000000000e+00, 1.000000000000000000e+02
7.000000000000000000e+00, 4.688717999999999847e+03, 4.182564000000000306e+03, 4.100512999999999920e+03, 4.176922999999999774e+03, 4.972307999999999993e+03, 1.000000000000000000e+00, 1.000000000000000000e+00, 1.000000000000000000e+02
8.000000000000000000e+00, 4.669230999999999767e+03, 4.184614999999999782e+03, 4.095896999999999935e+03, 4.177948999999999614e+03, 4.933332999999999629e+03, 1.000000000000000000e+00, 1.000000000000000000e+00, 1.000000000000000000e+02
9.000000000000000000e+00, 4.648204999999999927e+03, 4.186667000000000371e+03, 4.101025999999999840e+03, 4.174359000000000378e+03, 4.912307999999999993e+03, 1.000000000000000000e+00, 1.000000000000000000e+00, 1.000000000000000000e+02
1.000000000000000000e+01, 4.627179000000000087e+03, 4.186667000000000371e+03, 4.109230999999999767e+03, 4.171282000000000153e+03, 4.904103000000000065e+03, 1.000000000000000000e+00, 1.000000000000000000e+00, 1.000000000000000000e+02
1.100000000000000000e+01, 4.625127999999999702e+03, 4.196922999999999774e+03, 4.114359000000000378e+03, 4.165640999999999622e+03, 4.899487000000000080e+03, 1.000000000000000000e+00, 1.000000000000000000e+00, 1.000000000000000000e+02
1.200000000000000000e+01, 4.633332999999999629e+03, 4.205127999999999702e+03, 4.120000000000000000e+03, 4.162051000000000386e+03, 4.889743999999999687e+03, 1.000000000000000000e+00, 1.000000000000000000e+00, 1.000000000000000000e+02
1.300000000000000000e+01, 4.617435999999999694e+03, 4.205127999999999702e+03, 4.121025999999999840e+03, 4.177435999999999694e+03, 4.861025999999999840e+03, 1.000000000000000000e+00, 1.000000000000000000e+00, 1.000000000000000000e+02
1.400000000000000000e+01, 4.586667000000000371e+03, 4.205127999999999702e+03, 4.123077000000000226e+03, 4.194359000000000378e+03, 4.825127999999999702e+03, 1.000000000000000000e+00, 1.000000000000000000e+00, 1.000000000000000000e+02
1.500000000000000000e+01, 4.571795000000000073e+03, 4.203077000000000226e+03, 4.130769000000000233e+03, 4.192307999999999993e+03, 4.800512999999999920e+03, 1.000000000000000000e+00, 1.000000000000000000e+00, 1.000000000000000000e+02
1.600000000000000000e+01, 4.569743999999999687e+03, 4.203077000000000226e+03, 4.129743999999999687e+03, 4.192307999999999993e+03, 4.784614999999999782e+03, 1.000000000000000000e+00, 1.000000000000000000e+00, 1.000000000000000000e+02
1.700000000000000000e+01, 4.557435999999999694e+03, 4.207179000000000087e+03, 4.118462000000000444e+03, 4.198974000000000160e+03, 4.750256000000000313e+03, 1.000000000000000000e+00, 1.000000000000000000e+00, 1.000000000000000000e+02
1.800000000000000000e+01, 4.529743999999999687e+03, 4.203077000000000226e+03, 4.113845999999999549e+03, 4.192307999999999993e+03, 4.702051000000000386e+03, 1.000000000000000000e+00, 1.000000000000000000e+00, 1.000000000000000000e+02
1.900000000000000000e+01, 4.503077000000000226e+03, 4.188717999999999847e+03, 4.117435999999999694e+03, 4.185640999999999622e+03, 4.666667000000000371e+03, 1.000000000000000000e+00, 1.000000000000000000e+00, 1.000000000000000000e+02
2.000000000000000000e+01, 4.475385000000000218e+03, 4.188717999999999847e+03, 4.110769000000000233e+03, 4.189230999999999767e+03, 4.641025999999999840e+03, 1.000000000000000000e+00, 1.000000000000000000e+00, 1.000000000000000000e+02
2.100000000000000000e+01, 4.452820999999999913e+03, 4.201025999999999840e+03, 4.113845999999999549e+03, 4.194359000000000378e+03, 4.622564000000000306e+03, 1.000000000000000000e+00, 1.000000000000000000e+00, 1.000000000000000000e+02
2.200000000000000000e+01, 4.441537999999999556e+03, 4.201025999999999840e+03, 4.133845999999999549e+03, 4.190256000000000313e+03, 4.602051000000000386e+03, 1.000000000000000000e+00, 1.000000000000000000e+00, 1.000000000000000000e+02
2.300000000000000000e+01, 4.424103000000000065e+03, 4.207179000000000087e+03, 4.139487000000000080e+03, 4.181025999999999840e+03, 4.564103000000000065e+03, 1.000000000000000000e+00, 1.000000000000000000e+00, 1.000000000000000000e+02
2.400000000000000000e+01, 4.404103000000000065e+03, 4.223590000000000146e+03, 4.134872000000000298e+03, 4.180000000000000000e+03, 4.534872000000000298e+03, 1.000000000000000000e+00, 1.000000000000000000e+00, 1.000000000000000000e+02
2.500000000000000000e+01, 4.396922999999999774e+03, 4.233845999999999549e+03, 4.135385000000000218e+03, 4.180512999999999920e+03, 4.518974000000000160e+03, 1.000000000000000000e+00, 1.000000000000000000e+00, 1.000000000000000000e+02
2.600000000000000000e+01, 4.391795000000000073e+03, 4.229743999999999687e+03, 4.142051000000000386e+03, 4.181537999999999556e+03, 4.491282000000000153e+03, 1.000000000000000000e+00, 1.000000000000000000e+00, 1.000000000000000000e+02
2.700000000000000000e+01, 4.378462000000000444e+03, 4.223590000000000146e+03, 4.144614999999999782e+03, 4.192307999999999993e+03, 4.456409999999999854e+03, 1.000000000000000000e+00, 1.000000000000000000e+00, 1.000000000000000000e+02
2.800000000000000000e+01, 4.354359000000000378e+03, 4.227692000000000007e+03, 4.132820999999999913e+03, 4.198462000000000444e+03, 4.426154000000000451e+03, 1.000000000000000000e+00, 1.000000000000000000e+00, 1.000000000000000000e+02
2.900000000000000000e+01, 4.333845999999999549e+03, 4.227692000000000007e+03, 4.116922999999999774e+03, 4.189230999999999767e+03, 4.407179000000000087e+03, 1.000000000000000000e+00, 1.000000000000000000e+00, 1.000000000000000000e+02
3.000000000000000000e+01, 4.323077000000000226e+03, 4.217435999999999694e+03, 4.107179000000000087e+03, 4.180512999999999920e+03, 4.380512999999999920e+03, 1.000000000000000000e+00, 1.000000000000000000e+00, 1.000000000000000000e+02
3.100000000000000000e+01, 4.316409999999999854e+03, 4.215385000000000218e+03, 4.105127999999999702e+03, 4.185127999999999702e+03, 4.341537999999999556e+03, 1.000000000000000000e+00, 1.000000000000000000e+00, 1.000000000000000000e+02
3.200000000000000000e+01, 4.317948999999999614e+03, 4.223590000000000146e+03, 4.116409999999999854e+03, 4.195385000000000218e+03, 4.329230999999999767e+03, 1.000000000000000000e+00, 1.000000000000000000e+00, 1.000000000000000000e+02
3.300000000000000000e+01, 4.309743999999999687e+03, 4.227692000000000007e+03, 4.124614999999999782e+03, 4.192820999999999913e+03, 4.323077000000000226e+03, 1.000000000000000000e+00, 1.000000000000000000e+00, 1.000000000000000000e+02
3.400000000000000000e+01, 4.278974000000000160e+03, 4.227692000000000007e+03, 4.113845999999999549e+03, 4.183077000000000226e+03, 4.292820999999999913e+03, 1.000000000000000000e+00, 1.000000000000000000e+00, 1.000000000000000000e+02
3.500000000000000000e+01, 4.252307999999999993e+03, 4.221537999999999556e+03, 4.102564000000000306e+03, 4.179487000000000080e+03, 4.257435999999999694e+03, 1.000000000000000000e+00, 1.000000000000000000e+00, 1.000000000000000000e+02
3.600000000000000000e+01, 4.246154000000000451e+03, 4.215385000000000218e+03, 4.103077000000000226e+03, 4.184614999999999782e+03, 4.239487000000000080e+03, 1.000000000000000000e+00, 1.000000000000000000e+00, 1.000000000000000000e+02
3.700000000000000000e+01, 4.242564000000000306e+03, 4.209230999999999767e+03, 4.108717999999999847e+03, 4.187692000000000007e+03, 4.231282000000000153e+03, 1.000000000000000000e+00, 1.000000000000000000e+00, 1.000000000000000000e+02
3.800000000000000000e+01, 4.218974000000000160e+03, 4.198974000000000160e+03, 4.108204999999999927e+03, 4.182051000000000386e+03, 4.206154000000000451e+03, 1.000000000000000000e+00, 1.000000000000000000e+00, 1.000000000000000000e+02
3.900000000000000000e+01, 4.190769000000000233e+03, 4.196922999999999774e+03, 4.109743999999999687e+03, 4.185640999999999622e+03, 4.177948999999999614e+03, 1.000000000000000000e+00, 1.000000000000000000e+00, 1.000000000000000000e+02
4.000000000000000000e+01, 4.170256000000000313e+03, 4.215385000000000218e+03, 4.115385000000000218e+03, 4.193845999999999549e+03, 4.151282000000000153e+03, 1.000000000000000000e+00, 1.000000000000000000e+00, 1.000000000000000000e+02
4.100000000000000000e+01, 4.151795000000000073e+03, 4.223590000000000146e+03, 4.116922999999999774e+03, 4.186667000000000371e+03, 4.115896999999999935e+03, 1.000000000000000000e+00, 1.000000000000000000e+00, 1.000000000000000000e+02
4.200000000000000000e+01, 4.133845999999999549e+03, 4.209230999999999767e+03, 4.119487000000000080e+03, 4.183077000000000226e+03, 4.084614999999999782e+03, 1.000000000000000000e+00, 1.000000000000000000e+00, 1.000000000000000000e+02
4.300000000000000000e+01, 4.121025999999999840e+03, 4.211282000000000153e+03, 4.125127999999999702e+03, 4.192820999999999913e+03, 4.063590000000000146e+03, 1.000000000000000000e+00, 1.000000000000000000e+00, 1.000000000000000000e+02
4.400000000000000000e+01, 4.105640999999999622e+03, 4.225640999999999622e+03, 4.135385000000000218e+03, 4.194359000000000378e+03, 4.053846000000000004e+03, 1.000000000000000000e+00, 1.000000000000000000e+00, 1.000000000000000000e+02
4.500000000000000000e+01, 4.076409999999999854e+03, 4.221537999999999556e+03, 4.141025999999999840e+03, 4.190256000000000313e+03, 4.031795000000000073e+03, 1.000000000000000000e+00, 1.000000000000000000e+00, 1.000000000000000000e+02
4.600000000000000000e+01, 4.054871999999999844e+03, 4.223590000000000146e+03, 4.135896999999999935e+03, 4.193845999999999549e+03, 3.991282000000000153e+03, 1.000000000000000000e+00, 1.000000000000000000e+00, 1.000000000000000000e+02
4.700000000000000000e+01, 4.056409999999999854e+03, 4.231795000000000073e+03, 4.135896999999999935e+03, 4.192307999999999993e+03, 3.973333000000000084e+03, 1.000000000000000000e+00, 1.000000000000000000e+00, 1.000000000000000000e+02
4.800000000000000000e+01, 4.044614999999999782e+03, 4.229743999999999687e+03, 4.123590000000000146e+03, 4.184103000000000065e+03, 3.962050999999999931e+03, 1.000000000000000000e+00, 1.000000000000000000e+00, 1.000000000000000000e+02
4.900000000000000000e+01, 4.021538000000000011e+03, 4.217435999999999694e+03, 4.098974000000000160e+03, 4.174359000000000378e+03, 3.929231000000000222e+03, 1.000000000000000000e+00, 1.000000000000000000e+00, 1.000000000000000000e+02
5.000000000000000000e+01, 4.026153999999999996e+03, 4.221537999999999556e+03, 4.085128000000000156e+03, 4.163590000000000146e+03, 3.902050999999999931e+03, 1.000000000000000000e+00, 1.000000000000000000e+00, 1.000000000000000000e+02
5.100000000000000000e+01, 4.028204999999999927e+03, 4.217435999999999694e+03, 4.072307999999999993e+03, 4.160000000000000000e+03, 3.883077000000000226e+03, 1.000000000000000000e+00, 1.000000000000000000e+00, 1.000000000000000000e+02
5.200000000000000000e+01, 3.998974000000000160e+03, 4.194872000000000298e+03, 4.069231000000000222e+03, 4.170256000000000313e+03, 3.866153999999999996e+03, 1.000000000000000000e+00, 1.000000000000000000e+00, 1.000000000000000000e+02
5.300000000000000000e+01, 3.970255999999999858e+03, 4.180512999999999920e+03, 4.081025999999999840e+03, 4.186667000000000371e+03, 3.856922999999999774e+03, 1.000000000000000000e+00, 1.000000000000000000e+00, 1.000000000000000000e+02
5.400000000000000000e+01, 3.967692000000000007e+03, 4.194872000000000298e+03, 4.085128000000000156e+03, 4.201537999999999556e+03, 3.853333000000000084e+03, 1.000000000000000000e+00, 1.000000000000000000e+00, 1.000000000000000000e+02
5.500000000000000000e+01, 3.964614999999999782e+03, 4.215385000000000218e+03, 4.075385000000000218e+03, 4.200000000000000000e+03, 3.845128000000000156e+03, 1.000000000000000000e+00, 1.000000000000000000e+00, 1.000000000000000000e+02
5.600000000000000000e+01, 3.943077000000000226e+03, 4.219487000000000080e+03, 4.058461999999999989e+03, 4.175896999999999935e+03, 3.818461999999999989e+03, 1.000000000000000000e+00, 1.000000000000000000e+00, 1.000000000000000000e+02
5.700000000000000000e+01, 3.932820999999999913e+03, 4.215385000000000218e+03, 4.058974000000000160e+03, 4.167692000000000007e+03, 3.795385000000000218e+03, 1.000000000000000000e+00, 1.000000000000000000e+00, 1.000000000000000000e+02
5.800000000000000000e+01, 3.939487000000000080e+03, 4.221537999999999556e+03, 4.087179000000000087e+03, 4.187179000000000087e+03, 3.788717999999999847e+03, 1.000000000000000000e+00, 1.000000000000000000e+00, 1.000000000000000000e+02
5.900000000000000000e+01, 3.937436000000000149e+03, 4.223590000000000146e+03, 4.113332999999999629e+03, 4.195385000000000218e+03, 3.785128000000000156e+03, 1.000000000000000000e+00, 1.000000000000000000e+00, 1.000000000000000000e+02
6.000000000000000000e+01, 3.920000000000000000e+03, 4.211282000000000153e+03, 4.112307999999999993e+03, 4.187179000000000087e+03, 3.764614999999999782e+03, 1.000000000000000000e+00, 1.000000000000000000e+00, 1.000000000000000000e+02
6.100000000000000000e+01, 3.888717999999999847e+03, 4.201025999999999840e+03, 4.087692000000000007e+03, 4.180512999999999920e+03, 3.725641000000000076e+03, 1.000000000000000000e+00, 1.000000000000000000e+00, 1.000000000000000000e+02
6.200000000000000000e+01, 3.863077000000000226e+03, 4.198974000000000160e+03, 4.070255999999999858e+03, 4.176922999999999774e+03, 3.697949000000000069e+03, 1.000000000000000000e+00, 1.000000000000000000e+00, 1.000000000000000000e+02
6.300000000000000000e+01, 3.857949000000000069e+03, 4.186667000000000371e+03, 4.066153999999999996e+03, 4.172820999999999913e+03, 3.677949000000000069e+03, 1.000000000000000000e+00, 1.000000000000000000e+00, 1.000000000000000000e+02
6.400000000000000000e+01, 3.863077000000000226e+03, 4.170256000000000313e+03, 4.067179000000000087e+03, 4.173845999999999549e+03, 3.664103000000000065e+03, 1.000000000000000000e+00, 1.000000000000000000e+00, 1.000000000000000000e+02
6.500000000000000000e+01, 3.863590000000000146e+03, 4.166154000000000451e+03, 4.075385000000000218e+03, 4.184103000000000065e+03, 3.668717999999999847e+03, 1.000000000000000000e+00, 1.000000000000000000e+00, 1.000000000000000000e+02
6.600000000000000000e+01, 3.852307999999999993e+03, 4.168204999999999927e+03, 4.084614999999999782e+03, 4.200000000000000000e+03, 3.666153999999999996e+03, 1.000000000000000000e+00, 1.000000000000000000e+00, 1.000000000000000000e+02
6.700000000000000000e+01, 3.843077000000000226e+03, 4.166154000000000451e+03, 4.084614999999999782e+03, 4.208717999999999847e+03, 3.649744000000000142e+03, 1.000000000000000000e+00, 1.000000000000000000e+00, 1.000000000000000000e+02
6.800000000000000000e+01, 3.846153999999999996e+03, 4.182564000000000306e+03, 4.077949000000000069e+03, 4.198974000000000160e+03, 3.647179000000000087e+03, 1.000000000000000000e+00, 1.000000000000000000e+00, 1.000000000000000000e+02
6.900000000000000000e+01, 3.854358999999999924e+03, 4.213332999999999629e+03, 4.069744000000000142e+03, 4.182564000000000306e+03, 3.654871999999999844e+03, 1.000000000000000000e+00, 1.000000000000000000e+00, 1.000000000000000000e+02
7.000000000000000000e+01, 3.853333000000000084e+03, 4.221537999999999556e+03, 4.057949000000000069e+03, 4.184103000000000065e+03, 3.637949000000000069e+03, 1.000000000000000000e+00, 1.000000000000000000e+00, 1.000000000000000000e+02
7.100000000000000000e+01, 3.835896999999999935e+03, 4.211282000000000153e+03, 4.049231000000000222e+03, 4.191282000000000153e+03, 3.610255999999999858e+03, 1.000000000000000000e+00, 1.000000000000000000e+00, 1.000000000000000000e+02
7.200000000000000000e+01, 3.830768999999999778e+03, 4.213332999999999629e+03, 4.053846000000000004e+03, 4.183590000000000146e+03, 3.611795000000000073e+03, 1.000000000000000000e+00, 1.000000000000000000e+00, 1.000000000000000000e+02
7.300000000000000000e+01, 3.847692000000000007e+03, 4.217435999999999694e+03, 4.055896999999999935e+03, 4.175385000000000218e+03, 3.605641000000000076e+03, 1.000000000000000000e+00, 1.000000000000000000e+00, 1.000000000000000000e+02
7.400000000000000000e+01, 3.858974000000000160e+03, 4.198974000000000160e+03, 4.052307999999999993e+03, 4.177435999999999694e+03, 3.571795000000000073e+03, 1.000000000000000000e+00, 1.000000000000000000e+00, 1.000000000000000000e+02
7.500000000000000000e+01, 3.861538000000000011e+03, 4.174359000000000378e+03, 4.064103000000000065e+03, 4.182051000000000386e+03, 3.569744000000000142e+03, 1.000000000000000000e+00, 1.000000000000000000e+00, 1.000000000000000000e+02
7.600000000000000000e+01, 3.866666999999999916e+03, 4.172307999999999993e+03, 4.070255999999999858e+03, 4.185127999999999702e+03, 3.583590000000000146e+03, 1.000000000000000000e+00, 1.000000000000000000e+00, 1.000000000000000000e+02
7.700000000000000000e+01, 3.871282000000000153e+03, 4.182564000000000306e+03, 4.063590000000000146e+03, 4.186154000000000451e+03, 3.567692000000000007e+03, 1.000000000000000000e+00, 1.000000000000000000e+00, 1.000000000000000000e+02
7.800000000000000000e+01, 3.867179000000000087e+03, 4.190769000000000233e+03, 4.063590000000000146e+03, 4.176409999999999854e+03, 3.544103000000000065e+03, 1.000000000000000000e+00, 1.000000000000000000e+00, 1.000000000000000000e+02
7.900000000000000000e+01, 3.850768999999999778e+03, 4.198974000000000160e+03, 4.060512999999999920e+03, 4.165127999999999702e+03, 3.529231000000000222e+03, 1.000000000000000000e+00, 1.000000000000000000e+00, 1.000000000000000000e+02
8.000000000000000000e+01, 3.843590000000000146e+03, 4.207179000000000087e+03, 4.055385000000000218e+03, 4.171282000000000153e+03, 3.526153999999999996e+03, 1.000000000000000000e+00, 1.000000000000000000e+00, 1.000000000000000000e+02
8.100000000000000000e+01, 3.849744000000000142e+03, 4.213332999999999629e+03, 4.055385000000000218e+03, 4.176922999999999774e+03, 3.514358999999999924e+03, 1.000000000000000000e+00, 1.000000000000000000e+00, 1.000000000000000000e+02
8.200000000000000000e+01, 3.844103000000000065e+03, 4.209230999999999767e+03, 4.056922999999999774e+03, 4.172307999999999993e+03, 3.492307999999999993e+03, 1.000000000000000000e+00, 1.000000000000000000e+00, 1.000000000000000000e+02
8.300000000000000000e+01, 3.833333000000000084e+03, 4.196922999999999774e+03, 4.061025999999999840e+03, 4.167692000000000007e+03, 3.489744000000000142e+03, 1.000000000000000000e+00, 1.000000000000000000e+00, 1.000000000000000000e+02
8.400000000000000000e+01, 3.833333000000000084e+03, 4.201025999999999840e+03, 4.060000000000000000e+03, 4.164614999999999782e+03, 3.484614999999999782e+03, 1.000000000000000000e+00, 1.000000000000000000e+00, 1.000000000000000000e+02
8.500000000000000000e+01, 3.844614999999999782e+03, 4.217435999999999694e+03, 4.048204999999999927e+03, 4.164103000000000065e+03, 3.467179000000000087e+03, 1.000000000000000000e+00, 1.000000000000000000e+00, 1.000000000000000000e+02
8.600000000000000000e+01, 3.854871999999999844e+03, 4.213332999999999629e+03, 4.029744000000000142e+03, 4.165127999999999702e+03, 3.471282000000000153e+03, 1.000000000000000000e+00, 1.000000000000000000e+00, 1.000000000000000000e+02
8.700000000000000000e+01, 3.854358999999999924e+03, 4.205127999999999702e+03, 4.009231000000000222e+03, 4.171795000000000073e+03, 3.486153999999999996e+03, 1.000000000000000000e+00, 1.000000000000000000e+00, 1.000000000000000000e+02
8.800000000000000000e+01, 3.856922999999999774e+03, 4.198974000000000160e+03, 3.992307999999999993e+03, 4.183590000000000146e+03, 3.487179000000000087e+03, 1.000000000000000000e+00, 1.000000000000000000e+00, 1.000000000000000000e+02
8.900000000000000000e+01, 3.868717999999999847e+03, 4.188717999999999847e+03, 3.983077000000000226e+03, 4.188204999999999927e+03, 3.489231000000000222e+03, 1.000000000000000000e+00, 1.000000000000000000e+00, 1.000000000000000000e+02
9.000000000000000000e+01, 3.880000000000000000e+03, 4.194872000000000298e+03, 3.983590000000000146e+03, 4.189230999999999767e+03, 3.505128000000000156e+03, 1.000000000000000000e+00, 1.000000000000000000e+00, 1.000000000000000000e+02
9.100000000000000000e+01, 3.882050999999999931e+03, 4.219487000000000080e+03, 3.980512999999999920e+03, 4.195385000000000218e+03, 3.514358999999999924e+03, 1.000000000000000000e+00, 1.000000000000000000e+00, 1.000000000000000000e+02
9.200000000000000000e+01, 3.889744000000000142e+03, 4.225640999999999622e+03, 3.968204999999999927e+03, 4.200000000000000000e+03, 3.512820999999999913e+03, 1.000000000000000000e+00, 1.000000000000000000e+00, 1.000000000000000000e+02
9.300000000000000000e+01, 3.896922999999999774e+03, 4.219487000000000080e+03, 3.958974000000000160e+03, 4.202564000000000306e+03, 3.519487000000000080e+03, 1.000000000000000000e+00, 1.000000000000000000e+00, 1.000000000000000000e+02
9.400000000000000000e+01, 3.885641000000000076e+03, 4.221537999999999556e+03, 3.934871999999999844e+03, 4.201537999999999556e+03, 3.518974000000000160e+03, 1.000000000000000000e+00, 1.000000000000000000e+00, 1.000000000000000000e+02
9.500000000000000000e+01, 3.876409999999999854e+03, 4.203077000000000226e+03, 3.894358999999999924e+03, 4.186667000000000371e+03, 3.506666999999999916e+03, 1.000000000000000000e+00, 1.000000000000000000e+00, 1.000000000000000000e+02
9.600000000000000000e+01, 3.870768999999999778e+03, 4.176409999999999854e+03, 3.869231000000000222e+03, 4.174359000000000378e+03, 3.493846000000000004e+03, 1.000000000000000000e+00, 1.000000000000000000e+00, 1.000000000000000000e+02
9.700000000000000000e+01, 3.856922999999999774e+03, 4.168204999999999927e+03, 3.861538000000000011e+03, 4.175896999999999935e+03, 3.484614999999999782e+03, 1.000000000000000000e+00, 1.000000000000000000e+00, 1.000000000000000000e+02
9.800000000000000000e+01, 3.862050999999999931e+03, 4.168204999999999927e+03, 3.852307999999999993e+03, 4.180000000000000000e+03, 3.497436000000000149e+03, 1.000000000000000000e+00, 1.000000000000000000e+00, 1.000000000000000000e+02
9.900000000000000000e+01, 3.873333000000000084e+03, 4.155896999999999935e+03, 3.820000000000000000e+03, 4.172307999999999993e+03, 3.506666999999999916e+03, 1.000000000000000000e+00, 1.000000000000000000e+00, 1.000000000000000000e+02
1.000000000000000000e+02, 3.869231000000000222e+03, 4.141537999999999556e+03, 3.791795000000000073e+03, 4.155385000000000218e+03, 3.501538000000000011e+03, 1.000000000000000000e+00, 1.000000000000000000e+00, 1.000000000000000000e+02
1.010000000000000000e+02, 3.875385000000000218e+03, 4.137435999999999694e+03, 3.798974000000000160e+03, 4.152307999999999993e+03, 3.507179000000000087e+03, 1.000000000000000000e+00, 1.000000000000000000e+00, 1.000000000000000000e+02
1.020000000000000000e+02, 3.887179000000000087e+03, 4.135385000000000218e+03, 3.808717999999999847e+03, 4.158974000000000160e+03, 3.513846000000000004e+03, 1.000000000000000000e+00, 1.000000000000000000e+00, 1.000000000000000000e+02
1.030000000000000000e+02, 3.875385000000000218e+03, 4.139487000000000080e+03, 3.812307999999999993e+03, 4.154872000000000298e+03, 3.514871999999999844e+03, 1.000000000000000000e+00, 1.000000000000000000e+00, 1.000000000000000000e+02
1.040000000000000000e+02, 3.864614999999999782e+03, 4.147692000000000007e+03, 3.825128000000000156e+03, 4.149230999999999767e+03, 3.526153999999999996e+03, 1.000000000000000000e+00, 1.000000000000000000e+00, 1.000000000000000000e+02
1.050000000000000000e+02, 3.874871999999999844e+03, 4.147692000000000007e+03, 3.832307999999999993e+03, 4.165127999999999702e+03, 3.542563999999999851e+03, 1.000000000000000000e+00, 1.000000000000000000e+00, 1.000000000000000000e+02
1.060000000000000000e+02, 3.886153999999999996e+03, 4.151795000000000073e+03, 3.835896999999999935e+03, 4.189230999999999767e+03, 3.541538000000000011e+03, 1.000000000000000000e+00, 1.000000000000000000e+00, 1.000000000000000000e+02
1.070000000000000000e+02, 3.886153999999999996e+03, 4.155896999999999935e+03, 3.845128000000000156e+03, 4.192820999999999913e+03, 3.528204999999999927e+03, 1.000000000000000000e+00, 1.000000000000000000e+00, 1.000000000000000000e+02
1.080000000000000000e+02, 3.887179000000000087e+03, 4.149743999999999687e+03, 3.847179000000000087e+03, 4.182051000000000386e+03, 3.531795000000000073e+03, 1.000000000000000000e+00, 1.000000000000000000e+00, 1.000000000000000000e+02
1.090000000000000000e+02, 3.896922999999999774e+03, 4.145640999999999622e+03, 3.842050999999999931e+03, 4.174359000000000378e+03, 3.553333000000000084e+03, 1.000000000000000000e+00, 1.000000000000000000e+00, 1.000000000000000000e+02
1.100000000000000000e+02, 3.909744000000000142e+03, 4.153845999999999549e+03, 3.848717999999999847e+03, 4.175385000000000218e+03, 3.567179000000000087e+03, 1.000000000000000000e+00, 1.000000000000000000e+00, 1.000000000000000000e+02
1.110000000000000000e+02, 3.921025999999999840e+03, 4.151795000000000073e+03, 3.855896999999999935e+03, 4.171795000000000073e+03, 3.564103000000000065e+03, 1.000000000000000000e+00, 1.000000000000000000e+00, 1.000000000000000000e+02
1.120000000000000000e+02, 3.924103000000000065e+03, 4.137435999999999694e+03, 3.840512999999999920e+03, 4.162564000000000306e+03, 3.550768999999999778e+03, 1.000000000000000000e+00, 1.000000000000000000e+00, 1.000000000000000000e+02
1.130000000000000000e+02, 3.921025999999999840e+03, 4.131282000000000153e+03, 3.821538000000000011e+03, 4.158974000000000160e+03, 3.558461999999999989e+03, 1.000000000000000000e+00, 1.000000000000000000e+00, 1.000000000000000000e+02
1.140000000000000000e+02, 3.915385000000000218e+03, 4.125127999999999702e+03, 3.815896999999999935e+03, 4.157948999999999614e+03, 3.588717999999999847e+03, 1.000000000000000000e+00, 1.000000000000000000e+00, 1.000000000000000000e+02
1.150000000000000000e+02, 3.922050999999999931e+03, 4.121025999999999840e+03, 3.818461999999999989e+03, 4.164614999999999782e+03, 3.616409999999999854e+03, 1.000000000000000000e+00, 1.000000000000000000e+00, 1.000000000000000000e+02
1.160000000000000000e+02, 3.942563999999999851e+03, 4.137435999999999694e+03, 3.827692000000000007e+03, 4.171282000000000153e+03, 3.630768999999999778e+03, 1.000000000000000000e+00, 1.000000000000000000e+00, 1.000000000000000000e+02
1.170000000000000000e+02, 3.943590000000000146e+03, 4.151795000000000073e+03, 3.829744000000000142e+03, 4.168204999999999927e+03, 3.621025999999999840e+03, 1.000000000000000000e+00, 1.000000000000000000e+00, 1.000000000000000000e+02
1.180000000000000000e+02, 3.940512999999999920e+03, 4.141537999999999556e+03, 3.828717999999999847e+03, 4.167692000000000007e+03, 3.609231000000000222e+03, 1.000000000000000000e+00, 1.000000000000000000e+00, 1.000000000000000000e+02
1.190000000000000000e+02, 3.953846000000000004e+03, 4.135385000000000218e+03, 3.833846000000000004e+03, 4.169230999999999767e+03, 3.611282000000000153e+03, 1.000000000000000000e+00, 1.000000000000000000e+00, 1.000000000000000000e+02
1.200000000000000000e+02, 3.965641000000000076e+03, 4.137435999999999694e+03, 3.846153999999999996e+03, 4.177948999999999614e+03, 3.624614999999999782e+03, 1.000000000000000000e+00, 1.000000000000000000e+00, 1.000000000000000000e+02
1.210000000000000000e+02, 3.973333000000000084e+03, 4.135385000000000218e+03, 3.860000000000000000e+03, 4.193845999999999549e+03, 3.652307999999999993e+03, 1.000000000000000000e+00, 1.000000000000000000e+00, 1.000000000000000000e+02
1.220000000000000000e+02, 3.983077000000000226e+03, 4.145640999999999622e+03, 3.862050999999999931e+03, 4.186154000000000451e+03, 3.669744000000000142e+03, 1.000000000000000000e+00, 1.000000000000000000e+00, 1.000000000000000000e+02
1.230000000000000000e+02, 3.991795000000000073e+03, 4.151795000000000073e+03, 3.868204999999999927e+03, 4.169743999999999687e+03, 3.675385000000000218e+03, 1.000000000000000000e+00, 1.000000000000000000e+00, 1.000000000000000000e+02
1.240000000000000000e+02, 4.001025999999999840e+03, 4.135385000000000218e+03, 3.875385000000000218e+03, 4.177948999999999614e+03, 3.689231000000000222e+03, 1.000000000000000000e+00, 1.000000000000000000e+00, 1.000000000000000000e+02
1.250000000000000000e+02, 4.008717999999999847e+03, 4.131282000000000153e+03, 3.856409999999999854e+03, 4.172307999999999993e+03, 3.703077000000000226e+03, 1.000000000000000000e+00, 1.000000000000000000e+00, 1.000000000000000000e+02
1.260000000000000000e+02, 4.015896999999999935e+03, 4.135385000000000218e+03, 3.837436000000000149e+03, 4.153332999999999629e+03, 3.713333000000000084e+03, 1.000000000000000000e+00, 1.000000000000000000e+00, 1.000000000000000000e+02
1.270000000000000000e+02, 4.024103000000000065e+03, 4.131282000000000153e+03, 3.844103000000000065e+03, 4.161025999999999840e+03, 3.720000000000000000e+03, 1.000000000000000000e+00, 1.000000000000000000e+00, 1.000000000000000000e+02
0.000000000000000000e+00, 4.023590000000000146e+03, 4.133332999999999629e+03, 3.853846000000000004e+03, 4.163077000000000226e+03, 3.729231000000000222e+03, 1.000000000000000000e+00, 1.000000000000000000e+00, 1.000000000000000000e+02
1.000000000000000000e+00, 4.012820999999999913e+03, 4.133332999999999629e+03, 3.848204999999999927e+03, 4.144103000000000065e+03, 3.736922999999999774e+03, 1.000000000000000000e+00, 1.000000000000000000e+00, 1.000000000000000000e+02
2.000000000000000000e+00, 4.015896999999999935e+03, 4.129230999999999767e+03, 3.846666999999999916e+03, 4.146667000000000371e+03, 3.742050999999999931e+03, 1.000000000000000000e+00, 1.000000000000000000e+00, 1.000000000000000000e+02
3.000000000000000000e+00, 4.034358999999999924e+03, 4.131282000000000153e+03, 3.858974000000000160e+03, 4.164614999999999782e+03, 3.747179000000000087e+03, 1.000000000000000000e+00, 1.000000000000000000e+00, 1.000000000000000000e+02
4.000000000000000000e+00, 4.040512999999999920e+03, 4.125127999999999702e+03, 3.854358999999999924e+03, 4.152307999999999993e+03, 3.735896999999999935e+03, 1.000000000000000000e+00, 1.000000000000000000e+00, 1.000000000000000000e+02
5.000000000000000000e+00, 4.050255999999999858e+03, 4.116922999999999774e+03, 3.841538000000000011e+03, 4.140512999999999920e+03, 3.733333000000000084e+03, 1.000000000000000000e+00, 1.000000000000000000e+00, 1.000000000000000000e+02
6.000000000000000000e+00, 4.072307999999999993e+03, 4.127179000000000087e+03, 3.854358999999999924e+03, 4.158974000000000160e+03, 3.764614999999999782e+03, 1.000000000000000000e+00, 1.000000000000000000e+00, 1.000000000000000000e+02
7.000000000000000000e+00, 4.078461999999999989e+03, 4.137435999999999694e+03, 3.869744000000000142e+03, 4.171282000000000153e+03, 3.790255999999999858e+03, 1.000000000000000000e+00, 1.000000000000000000e+00, 1.000000000000000000e+02
8.000000000000000000e+00, 4.083077000000000226e+03, 4.131282000000000153e+03, 3.868717999999999847e+03, 4.162564000000000306e+03, 3.806666999999999916e+03, 1.000000000000000000e+00, 1.000000000000000000e+00, 1.000000000000000000e+02
9.000000000000000000e+00, 4.102564000000000306e+03, 4.129230999999999767e+03, 3.871282000000000153e+03, 4.162051000000000386e+03, 3.838461999999999989e+03, 1.000000000000000000e+00, 1.000000000000000000e+00, 1.000000000000000000e+02
1.000000000000000000e+01, 4.120512999999999920e+03, 4.127179000000000087e+03, 3.876922999999999774e+03, 4.170256000000000313e+03, 3.862050999999999931e+03, 1.000000000000000000e+00, 1.000000000000000000e+00, 1.000000000000000000e+02
1.100000000000000000e+01, 4.134359000000000378e+03, 4.123077000000000226e+03, 3.870255999999999858e+03, 4.166667000000000371e+03, 3.860000000000000000e+03, 1.000000000000000000e+00, 1.000000000000000000e+00, 1.000000000000000000e+02
1.200000000000000000e+01, 4.135385000000000218e+03, 4.121025999999999840e+03, 3.858974000000000160e+03, 4.154872000000000298e+03, 3.852820999999999913e+03, 1.000000000000000000e+00, 1.000000000000000000e+00, 1.000000000000000000e+02
1.300000000000000000e+01, 4.127692000000000007e+03, 4.125127999999999702e+03, 3.862563999999999851e+03, 4.144614999999999782e+03, 3.862050999999999931e+03, 1.000000000000000000e+00, 1.000000000000000000e+00, 1.000000000000000000e+02
1.400000000000000000e+01, 4.126154000000000451e+03, 4.121025999999999840e+03, 3.865641000000000076e+03, 4.140512999999999920e+03, 3.867692000000000007e+03, 1.000000000000000000e+00, 1.000000000000000000e+00, 1.000000000000000000e+02
1.500000000000000000e+01, 4.135896999999999935e+03, 4.121025999999999840e+03, 3.869231000000000222e+03, 4.145127999999999702e+03, 3.866666999999999916e+03, 1.000000000000000000e+00, 1.000000000000000000e+00, 1.000000000000000000e+02
1.600000000000000000e+01, 4.158974000000000160e+03, 4.133332999999999629e+03, 3.891795000000000073e+03, 4.154872000000000298e+03, 3.890768999999999778e+03, 1.000000000000000000e+00, 1.000000000000000000e+00, 1.000000000000000000e+02
1.700000000000000000e+01, 4.174359000000000378e+03, 4.135385000000000218e+03, 3.909744000000000142e+03, 4.163077000000000226e+03, 3.917436000000000149e+03, 1.000000000000000000e+00, 1.000000000000000000e+00, 1.000000000000000000e+02
1.800000000000000000e+01, 4.180000000000000000e+03, 4.129230999999999767e+03, 3.916409999999999854e+03, 4.172820999999999913e+03, 3.935385000000000218e+03, 1.000000000000000000e+00, 1.000000000000000000e+00, 1.000000000000000000e+02
1.900000000000000000e+01, 4.187692000000000007e+03, 4.135385000000000218e+03, 3.920512999999999920e+03, 4.178462000000000444e+03, 3.948204999999999927e+03, 1.000000000000000000e+00, 1.000000000000000000e+00, 1.000000000000000000e+02
2.000000000000000000e+01, 4.190769000000000233e+03, 4.137435999999999694e+03, 3.919487000000000080e+03, 4.171282000000000153e+03, 3.949744000000000142e+03, 1.000000000000000000e+00, 1.000000000000000000e+00, 1.000000000000000000e+02
2.100000000000000000e+01, 4.184614999999999782e+03, 4.125127999999999702e+03, 3.920000000000000000e+03, 4.163590000000000146e+03, 3.958461999999999989e+03, 1.000000000000000000e+00, 1.000000000000000000e+00, 1.000000000000000000e+02
2.200000000000000000e+01, 4.180512999999999920e+03, 4.118974000000000160e+03, 3.919487000000000080e+03, 4.161537999999999556e+03, 3.971795000000000073e+03, 1.000000000000000000e+00, 1.000000000000000000e+00, 1.000000000000000000e+02
2.300000000000000000e+01, 4.187692000000000007e+03, 4.112820999999999913e+03, 3.909744000000000142e+03, 4.158462000000000444e+03, 3.977949000000000069e+03, 1.000000000000000000e+00, 1.000000000000000000e+00, 1.000000000000000000e+02
2.400000000000000000e+01, 4.201537999999999556e+03, 4.104614999999999782e+03, 3.892820999999999913e+03, 4.151282000000000153e+03, 3.985128000000000156e+03, 1.000000000000000000e+00, 1.000000000000000000e+00, 1.000000000000000000e+02
2.500000000000000000e+01, 4.214359000000000378e+03, 4.116922999999999774e+03, 3.891795000000000073e+03, 4.149743999999999687e+03, 3.989231000000000222e+03, 1.000000000000000000e+00, 1.000000000000000000e+00, 1.000000000000000000e+02
2.600000000000000000e+01, 4.223590000000000146e+03, 4.123077000000000226e+03, 3.908204999999999927e+03, 4.152307999999999993e+03, 3.993333000000000084e+03, 1.000000000000000000e+00, 1.000000000000000000e+00, 1.000000000000000000e+02
2.700000000000000000e+01, 4.233845999999999549e+03, 4.125127999999999702e+03, 3.914358999999999924e+03, 4.147692000000000007e+03, 4.009744000000000142e+03, 1.000000000000000000e+00, 1.000000000000000000e+00, 1.000000000000000000e+02
2.800000000000000000e+01, 4.251282000000000153e+03, 4.129230999999999767e+03, 3.914358999999999924e+03, 4.150256000000000313e+03, 4.040000000000000000e+03, 1.000000000000000000e+00, 1.000000000000000000e+00, 1.000000000000000000e+02
2.900000000000000000e+01, 4.273332999999999629e+03, 4.131282000000000153e+03, 3.923077000000000226e+03, 4.175385000000000218e+03, 4.063590000000000146e+03, 1.000000000000000000e+00, 1.000000000000000000e+00, 1.000000000000000000e+02
3.000000000000000000e+01, 4.287179000000000087e+03, 4.135385000000000218e+03, 3.925641000000000076e+03, 4.184103000000000065e+03, 4.073846000000000004e+03, 1.000000000000000000e+00, 1.000000000000000000e+00, 1.000000000000000000e+02
3.100000000000000000e+01, 4.297948999999999614e+03, 4.133332999999999629e+03, 3.927692000000000007e+03, 4.168717999999999847e+03, 4.085641000000000076e+03, 1.000000000000000000e+00, 1.000000000000000000e+00, 1.000000000000000000e+02
3.200000000000000000e+01, 4.308717999999999847e+03, 4.125127999999999702e+03, 3.931795000000000073e+03, 4.167179000000000087e+03, 4.097435999999999694e+03, 1.000000000000000000e+00, 1.000000000000000000e+00, 1.000000000000000000e+02
3.300000000000000000e+01, 4.316409999999999854e+03, 4.129230999999999767e+03, 3.930255999999999858e+03, 4.174872000000000298e+03, 4.120512999999999920e+03, 1.000000000000000000e+00, 1.000000000000000000e+00, 1.000000000000000000e+02
3.400000000000000000e+01, 4.316922999999999774e+03, 4.127179000000000087e+03, 3.926666999999999916e+03, 4.170256000000000313e+03, 4.144614999999999782e+03, 1.000000000000000000e+00, 1.000000000000000000e+00, 1.000000000000000000e+02
3.500000000000000000e+01, 4.305127999999999702e+03, 4.112820999999999913e+03, 3.916409999999999854e+03, 4.157435999999999694e+03, 4.129230999999999767e+03, 1.000000000000000000e+00, 1.000000000000000000e+00, 1.000000000000000000e+02
3.600000000000000000e+01, 4.304103000000000065e+03, 4.114872000000000298e+03, 3.921025999999999840e+03, 4.151282000000000153e+03, 4.127179000000000087e+03, 1.000000000000000000e+00, 1.000000000000000000e+00, 1.000000000000000000e+02
3.700000000000000000e+01, 4.320000000000000000e+03, 4.127179000000000087e+03, 3.949231000000000222e+03, 4.155896999999999935e+03, 4.166667000000000371e+03, 1.000000000000000000e+00, 1.000000000000000000e+00, 1.000000000000000000e+02
3.800000000000000000e+01, 4.333332999999999629e+03, 4.127179000000000087e+03, 3.965641000000000076e+03, 4.164103000000000065e+03, 4.185127999999999702e+03, 1.000000000000000000e+00, 1.000000000000000000e+00, 1.000000000000000000e+02
3.900000000000000000e+01, 4.330256000000000313e+03, 4.123077000000000226e+03, 3.966153999999999996e+03, 4.157948999999999614e+03, 4.173332999999999629e+03, 1.000000000000000000e+00, 1.000000000000000000e+00, 1.000000000000000000e+02
4.000000000000000000e+01, 4.312307999999999993e+03, 4.127179000000000087e+03, 3.973846000000000004e+03, 4.147179000000000087e+03, 4.180000000000000000e+03, 1.000000000000000000e+00, 1.000000000000000000e+00, 1.000000000000000000e+02
4.100000000000000000e+01, 4.300512999999999920e+03, 4.129230999999999767e+03, 3.985128000000000156e+03, 4.155896999999999935e+03, 4.206667000000000371e+03, 1.000000000000000000e+00, 1.000000000000000000e+00, 1.000000000000000000e+02
4.200000000000000000e+01, 4.301537999999999556e+03, 4.129230999999999767e+03, 3.978974000000000160e+03, 4.160000000000000000e+03, 4.229230999999999767e+03, 1.000000000000000000e+00, 1.000000000000000000e+00, 1.000000000000000000e+02
4.300000000000000000e+01, 4.310769000000000233e+03, 4.135385000000000218e+03, 3.967692000000000007e+03, 4.153332999999999629e+03, 4.255385000000000218e+03, 1.000000000000000000e+00, 1.000000000000000000e+00, 1.000000000000000000e+02
4.400000000000000000e+01, 4.322564000000000306e+03, 4.147692000000000007e+03, 3.972307999999999993e+03, 4.162564000000000306e+03, 4.287692000000000007e+03, 1.000000000000000000e+00, 1.000000000000000000e+00, 1.000000000000000000e+02
4.500000000000000000e+01, 4.321537999999999556e+03, 4.151795000000000073e+03, 3.977949000000000069e+03, 4.170256000000000313e+03, 4.302051000000000386e+03, 1.000000000000000000e+00, 1.000000000000000000e+00, 1.000000000000000000e+02
4.600000000000000000e+01, 4.320512999999999920e+03, 4.145640999999999622e+03, 3.971795000000000073e+03, 4.162564000000000306e+03, 4.300000000000000000e+03, 1.000000000000000000e+00, 1.000000000000000000e+00, 1.000000000000000000e+02
4.700000000000000000e+01, 4.332820999999999913e+03, 4.137435999999999694e+03, 3.965128000000000156e+03, 4.157435999999999694e+03, 4.300512999999999920e+03, 1.000000000000000000e+00, 1.000000000000000000e+00, 1.000000000000000000e+02
4.800000000000000000e+01, 4.338974000000000160e+03, 4.139487000000000080e+03, 3.970255999999999858e+03, 4.164103000000000065e+03, 4.320512999999999920e+03, 1.000000000000000000e+00, 1.000000000000000000e+00, 1.000000000000000000e+02
4.900000000000000000e+01, 4.343590000000000146e+03, 4.153845999999999549e+03, 3.983590000000000146e+03, 4.171795000000000073e+03, 4.354359000000000378e+03, 1.000000000000000000e+00, 1.000000000000000000e+00, 1.000000000000000000e+02
5.000000000000000000e+01, 4.360512999999999920e+03, 4.151795000000000073e+03, 3.985641000000000076e+03, 4.168717999999999847e+03, 4.364614999999999782e+03, 1.000000000000000000e+00, 1.000000000000000000e+00, 1.000000000000000000e+02
5.100000000000000000e+01, 4.378974000000000160e+03, 4.141537999999999556e+03, 3.987692000000000007e+03, 4.161025999999999840e+03, 4.373332999999999629e+03, 1.000000000000000000e+00, 1.000000000000000000e+00, 1.000000000000000000e+02
5.200000000000000000e+01, 4.397435999999999694e+03, 4.151795000000000073e+03, 4.008717999999999847e+03, 4.171795000000000073e+03, 4.409230999999999767e+03, 1.000000000000000000e+00, 1.000000000000000000e+00, 1.000000000000000000e+02
5.300000000000000000e+01, 4.408717999999999847e+03, 4.153845999999999549e+03, 4.024103000000000065e+03, 4.186154000000000451e+03, 4.428717999999999847e+03, 1.000000000000000000e+00, 1.000000000000000000e+00, 1.000000000000000000e+02
5.400000000000000000e+01, 4.420000000000000000e+03, 4.149743999999999687e+03, 4.023590000000000146e+03, 4.174872000000000298e+03, 4.423077000000000226e+03, 1.000000000000000000e+00, 1.000000000000000000e+00, 1.000000000000000000e+02
5.500000000000000000e+01, 4.436922999999999774e+03, 4.160000000000000000e+03, 4.018461999999999989e+03, 4.171282000000000153e+03, 4.424103000000000065e+03, 1.000000000000000000e+00, 1.000000000000000000e+00, 1.000000000000000000e+02
5.600000000000000000e+01, 4.447179000000000087e+03, 4.166154000000000451e+03, 4.015385000000000218e+03, 4.180000000000000000e+03, 4.439487000000000080e+03, 1.000000000000000000e+00, 1.000000000000000000e+00, 1.000000000000000000e+02
5.700000000000000000e+01, 4.448717999999999847e+03, 4.157948999999999614e+03, 4.007692000000000007e+03, 4.170256000000000313e+03, 4.449743999999999687e+03, 1.000000000000000000e+00, 1.000000000000000000e+00, 1.000000000000000000e+02
5.800000000000000000e+01, 4.454872000000000298e+03, 4.151795000000000073e+03, 3.989231000000000222e+03, 4.154359000000000378e+03, 4.450256000000000313e+03, 1.000000000000000000e+00, 1.000000000000000000e+00, 1.000000000000000000e+02
5.900000000000000000e+01, 4.474872000000000298e+03, 4.143590000000000146e+03, 3.983077000000000226e+03, 4.156409999999999854e+03, 4.466154000000000451e+03, 1.000000000000000000e+00, 1.000000000000000000e+00, 1.000000000000000000e+02
6.000000000000000000e+01, 4.493332999999999629e+03, 4.143590000000000146e+03, 3.989231000000000222e+03, 4.161537999999999556e+03, 4.484103000000000065e+03, 1.000000000000000000e+00, 1.000000000000000000e+00, 1.000000000000000000e+02
6.100000000000000000e+01, 4.501025999999999840e+03, 4.153845999999999549e+03, 3.994358999999999924e+03, 4.159487000000000080e+03, 4.484103000000000065e+03, 1.000000000000000000e+00, 1.000000000000000000e+00, 1.000000000000000000e+02
6.200000000000000000e+01, 4.507692000000000007e+03, 4.151795000000000073e+03, 3.998461999999999989e+03, 4.156409999999999854e+03, 4.485640999999999622e+03, 1.000000000000000000e+00, 1.000000000000000000e+00, 1.000000000000000000e+02
6.300000000000000000e+01, 4.520000000000000000e+03, 4.147692000000000007e+03, 4.005641000000000076e+03, 4.144614999999999782e+03, 4.498462000000000444e+03, 1.000000000000000000e+00, 1.000000000000000000e+00, 1.000000000000000000e+02
6.400000000000000000e+01, 4.534359000000000378e+03, 4.164103000000000065e+03, 4.024103000000000065e+03, 4.149743999999999687e+03, 4.529230999999999767e+03, 1.000000000000000000e+00, 1.000000000000000000e+00, 1.000000000000000000e+02
6.500000000000000000e+01, 4.549230999999999767e+03, 4.170256000000000313e+03, 4.041538000000000011e+03, 4.172820999999999913e+03, 4.562051000000000386e+03, 1.000000000000000000e+00, 1.000000000000000000e+00, 1.000000000000000000e+02
6.600000000000000000e+01, 4.576409999999999854e+03, 4.166154000000000451e+03, 4.046666999999999916e+03, 4.176922999999999774e+03, 4.578974000000000160e+03, 1.000000000000000000e+00, 1.000000000000000000e+00, 1.000000000000000000e+02
6.700000000000000000e+01, 4.603590000000000146e+03, 4.174359000000000378e+03, 4.043077000000000226e+03, 4.167692000000000007e+03, 4.591282000000000153e+03, 1.000000000000000000e+00, 1.000000000000000000e+00, 1.000000000000000000e+02
6.800000000000000000e+01, 4.612820999999999913e+03, 4.176409999999999854e+03, 4.035896999999999935e+03, 4.167692000000000007e+03, 4.607179000000000087e+03, 1.000000000000000000e+00, 1.000000000000000000e+00, 1.000000000000000000e+02
6.900000000000000000e+01, 4.619487000000000080e+03, 4.164103000000000065e+03, 4.032820999999999913e+03, 4.166154000000000451e+03, 4.628717999999999847e+03, 1.000000000000000000e+00, 1.000000000000000000e+00, 1.000000000000000000e+02
7.000000000000000000e+01, 4.620000000000000000e+03, 4.151795000000000073e+03, 4.019487000000000080e+03, 4.148717999999999847e+03, 4.632820999999999913e+03, 1.000000000000000000e+00, 1.000000000000000000e+00, 1.000000000000000000e+02
7.100000000000000000e+01, 4.619487000000000080e+03, 4.145640999999999622e+03, 4.002563999999999851e+03, 4.144614999999999782e+03, 4.629743999999999687e+03, 1.000000000000000000e+00, 1.000000000000000000e+00, 1.000000000000000000e+02
7.200000000000000000e+01, 4.635385000000000218e+03, 4.149743999999999687e+03, 4.013846000000000004e+03, 4.162051000000000386e+03, 4.658462000000000444e+03, 1.000000000000000000e+00, 1.000000000000000000e+00, 1.000000000000000000e+02
7.300000000000000000e+01, 4.647179000000000087e+03, 4.162051000000000386e+03, 4.037949000000000069e+03, 4.169230999999999767e+03, 4.689743999999999687e+03, 1.000000000000000000e+00, 1.000000000000000000e+00, 1.000000000000000000e+02
7.400000000000000000e+01, 4.653332999999999629e+03, 4.166154000000000451e+03, 4.053846000000000004e+03, 4.162564000000000306e+03, 4.693845999999999549e+03, 1.000000000000000000e+00, 1.000000000000000000e+00, 1.000000000000000000e+02
7.500000000000000000e+01, 4.671282000000000153e+03, 4.157948999999999614e+03, 4.060000000000000000e+03, 4.159487000000000080e+03, 4.694359000000000378e+03, 1.000000000000000000e+00, 1.000000000000000000e+00, 1.000000000000000000e+02
7.600000000000000000e+01, 4.685640999999999622e+03, 4.157948999999999614e+03, 4.059487000000000080e+03, 4.167692000000000007e+03, 4.704614999999999782e+03, 1.000000000000000000e+00, 1.000000000000000000e+00, 1.000000000000000000e+02
7.700000000000000000e+01, 4.690769000000000233e+03, 4.164103000000000065e+03, 4.064614999999999782e+03, 4.182051000000000386e+03, 4.718462000000000444e+03, 1.000000000000000000e+00, 1.000000000000000000e+00, 1.000000000000000000e+02
7.800000000000000000e+01, 4.695896999999999935e+03, 4.170256000000000313e+03, 4.070255999999999858e+03, 4.182051000000000386e+03, 4.729743999999999687e+03, 1.000000000000000000e+00, 1.000000000000000000e+00, 1.000000000000000000e+02
7.900000000000000000e+01, 4.710256000000000313e+03, 4.174359000000000378e+03, 4.070255999999999858e+03, 4.162051000000000386e+03, 4.744614999999999782e+03, 1.000000000000000000e+00, 1.000000000000000000e+00, 1.000000000000000000e+02
8.000000000000000000e+01, 4.722051000000000386e+03, 4.168204999999999927e+03, 4.065128000000000156e+03, 4.156922999999999774e+03, 4.754359000000000378e+03, 1.000000000000000000e+00, 1.000000000000000000e+00, 1.000000000000000000e+02
8.100000000000000000e+01, 4.729743999999999687e+03, 4.168204999999999927e+03, 4.057436000000000149e+03, 4.161537999999999556e+03, 4.752307999999999993e+03, 1.000000000000000000e+00, 1.000000000000000000e+00, 1.000000000000000000e+02
8.200000000000000000e+01, 4.758462000000000444e+03, 4.180512999999999920e+03, 4.060512999999999920e+03, 4.161025999999999840e+03, 4.767179000000000087e+03, 1.000000000000000000e+00, 1.000000000000000000e+00, 1.000000000000000000e+02
8.300000000000000000e+01, 4.794872000000000298e+03, 4.178462000000000444e+03, 4.063590000000000146e+03, 4.165640999999999622e+03, 4.800000000000000000e+03, 1.000000000000000000e+00, 1.000000000000000000e+00, 1.000000000000000000e+02
8.400000000000000000e+01, 4.802051000000000386e+03, 4.170256000000000313e+03, 4.056922999999999774e+03, 4.169743999999999687e+03, 4.816922999999999774e+03, 1.000000000000000000e+00, 1.000000000000000000e+00, 1.000000000000000000e+02
8.500000000000000000e+01, 4.797948999999999614e+03, 4.174359000000000378e+03, 4.059487000000000080e+03, 4.168717999999999847e+03, 4.809743999999999687e+03, 1.000000000000000000e+00, 1.000000000000000000e+00, 1.000000000000000000e+02
8.600000000000000000e+01, 4.813845999999999549e+03, 4.176409999999999854e+03, 4.071795000000000073e+03, 4.175385000000000218e+03, 4.817435999999999694e+03, 1.000000000000000000e+00, 1.000000000000000000e+00, 1.000000000000000000e+02
8.700000000000000000e+01, 4.833845999999999549e+03, 4.168204999999999927e+03, 4.083590000000000146e+03, 4.182051000000000386e+03, 4.854359000000000378e+03, 1.000000000000000000e+00, 1.000000000000000000e+00, 1.000000000000000000e+02
8.800000000000000000e+01, 4.845127999999999702e+03, 4.168204999999999927e+03, 4.092307999999999993e+03, 4.172820999999999913e+03, 4.873332999999999629e+03, 1.000000000000000000e+00, 1.000000000000000000e+00, 1.000000000000000000e+02
8.900000000000000000e+01, 4.870256000000000313e+03, 4.178462000000000444e+03, 4.102564000000000306e+03, 4.178462000000000444e+03, 4.893332999999999629e+03, 1.000000000000000000e+00, 1.000000000000000000e+00, 1.000000000000000000e+02
9.000000000000000000e+01, 4.908204999999999927e+03, 4.178462000000000444e+03, 4.112820999999999913e+03, 4.196922999999999774e+03, 4.940000000000000000e+03, 1.000000000000000000e+00, 1.000000000000000000e+00, 1.000000000000000000e+02
9.100000000000000000e+01, 4.927692000000000007e+03, 4.188717999999999847e+03, 4.116922999999999774e+03, 4.193845999999999549e+03, 4.947692000000000007e+03, 1.000000000000000000e+00, 1.000000000000000000e+00, 1.000000000000000000e+02
9.200000000000000000e+01, 4.938462000000000444e+03, 4.198974000000000160e+03, 4.122051000000000386e+03, 4.189230999999999767e+03, 4.932307999999999993e+03, 1.000000000000000000e+00, 1.000000000000000000e+00, 1.000000000000000000e+02
9.300000000000000000e+01, 4.949230999999999767e+03, 4.190769000000000233e+03, 4.124614999999999782e+03, 4.195385000000000218e+03, 4.955896999999999935e+03, 1.000000000000000000e+00, 1.000000000000000000e+00, 1.000000000000000000e+02
9.400000000000000000e+01, 4.941537999999999556e+03, 4.180512999999999920e+03, 4.118974000000000160e+03, 4.188204999999999927e+03, 4.977435999999999694e+03, 1.000000000000000000e+00, 1.000000000000000000e+00, 1.000000000000000000e+02
9.500000000000000000e+01, 4.931795000000000073e+03, 4.180512999999999920e+03, 4.111795000000000073e+03, 4.172820999999999913e+03, 4.962564000000000306e+03, 1.000000000000000000e+00, 1.000000000000000000e+00, 1.000000000000000000e+02
9.600000000000000000e+01, 4.944103000000000065e+03, 4.182564000000000306e+03, 4.106154000000000451e+03, 4.173332999999999629e+03, 4.962051000000000386e+03, 1.000000000000000000e+00, 1.000000000000000000e+00, 1.000000000000000000e+02
9.700000000000000000e+01, 4.956922999999999774e+03, 4.180512999999999920e+03, 4.110769000000000233e+03, 4.181537999999999556e+03, 5.003077000000000226e+03, 1.000000000000000000e+00, 1.000000000000000000e+00, 1.000000000000000000e+02
9.800000000000000000e+01, 4.942564000000000306e+03, 4.184614999999999782e+03, 4.123590000000000146e+03, 4.183077000000000226e+03, 5.030256000000000313e+03, 1.000000000000000000e+00, 1.000000000000000000e+00, 1.000000000000000000e+02
9.900000000000000000e+01, 4.925640999999999622e+03, 4.184614999999999782e+03, 4.134359000000000378e+03, 4.178974000000000160e+03, 5.011795000000000073e+03, 1.000000000000000000e+00, 1.000000000000000000e+00, 1.000000000000000000e+02
1.000000000000000000e+02, 4.941537999999999556e+03, 4.180512999999999920e+03, 4.144614999999999782e+03, 4.173845999999999549e+03, 4.998462000000000444e+03, 1.000000000000000000e+00, 1.000000000000000000e+00, 1.000000000000000000e+02
1.010000000000000000e+02, 4.959487000000000080e+03, 4.184614999999999782e+03, 4.151795000000000073e+03, 4.174359000000000378e+03, 5.009230999999999767e+03, 1.000000000000000000e+00, 1.000000000000000000e+00, 1.000000000000000000e+02
1.020000000000000000e+02, 4.964614999999999782e+03, 4.194872000000000298e+03, 4.161537999999999556e+03, 4.188204999999999927e+03, 5.030256000000000313e+03, 1.000000000000000000e+00, 1.000000000000000000e+00, 1.000000000000000000e+02
1.030000000000000000e+02, 4.983077000000000226e+03, 4.201025999999999840e+03, 4.173332999999999629e+03, 4.203590000000000146e+03, 5.052307999999999993e+03, 0.000000000000000000e+00, 0.000000000000000000e+00, 1.000000000000000000e+02
1.040000000000000000e+02, 5.007179000000000087e+03, 4.198974000000000160e+03, 4.168717999999999847e+03, 4.201025999999999840e+03, 5.067692000000000007e+03, 0.000000000000000000e+00, 0.000000000000000000e+00, 1.000000000000000000e+02
1.050000000000000000e+02, 5.017435999999999694e+03, 4.201025999999999840e+03, 4.158974000000000160e+03, 4.198974000000000160e+03, 5.083077000000000226e+03, 0.000000000000000000e+00, 0.000000000000000000e+00, 1.000000000000000000e+02
1.060000000000000000e+02, 5.007692000000000007e+03, 4.198974000000000160e+03, 4.148204999999999927e+03, 4.203590000000000146e+03, 5.088204999999999927e+03, 0.000000000000000000e+00, 0.000000000000000000e+00, 1.000000000000000000e+02
1.070000000000000000e+02, 4.996922999999999774e+03, 4.196922999999999774e+03, 4.142564000000000306e+03, 4.202051000000000386e+03, 5.083077000000000226e+03, 0.000000000000000000e+00, 0.000000000000000000e+00, 1.000000000000000000e+02
1.080000000000000000e+02, 5.001025999999999840e+03, 4.201025999999999840e+03, 4.154872000000000298e+03, 4.196409999999999854e+03, 5.095896999999999935e+03, 0.000000000000000000e+00, 0.000000000000000000e+00, 1.000000000000000000e+02
1.090000000000000000e+02, 5.013845999999999549e+03, 4.201025999999999840e+03, 4.164103000000000065e+03, 4.193332999999999629e+03, 5.115385000000000218e+03, 0.000000000000000000e+00, 0.000000000000000000e+00, 1.000000000000000000e+02
1.100000000000000000e+02, 5.032820999999999913e+03, 4.194872000000000298e+03, 4.153845999999999549e+03, 4.191282000000000153e+03, 5.120512999999999920e+03, 0.000000000000000000e+00, 0.000000000000000000e+00, 1.000000000000000000e+02
1.110000000000000000e+02, 5.050256000000000313e+03, 4.196922999999999774e+03, 4.146154000000000451e+03, 4.190769000000000233e+03, 5.120512999999999920e+03, 0.000000000000000000e+00, 0.000000000000000000e+00, 1.000000000000000000e+02
1.120000000000000000e+02, 5.057435999999999694e+03, 4.201025999999999840e+03, 4.147179000000000087e+03, 4.191282000000000153e+03, 5.129230999999999767e+03, 0.000000000000000000e+00, 0.000000000000000000e+00, 1.000000000000000000e+02
1.130000000000000000e+02, 5.060512999999999920e+03, 4.198974000000000160e+03, 4.143590000000000146e+03, 4.182051000000000386e+03, 5.130769000000000233e+03, 0.000000000000000000e+00, 0.000000000000000000e+00, 1.000000000000000000e+02
1.140000000000000000e+02, 5.077435999999999694e+03, 4.198974000000000160e+03, 4.144614999999999782e+03, 4.174872000000000298e+03, 5.122051000000000386e+03, 0.000000000000000000e+00, 0.000000000000000000e+00, 1.000000000000000000e+02
1.150000000000000000e+02, 5.093332999999999629e+03, 4.198974000000000160e+03, 4.152820999999999913e+03, 4.185640999999999622e+03, 5.127179000000000087e+03, 0.000000000000000000e+00, 0.000000000000000000e+00, 1.000000000000000000e+02
1.160000000000000000e+02, 5.088717999999999847e+03, 4.196922999999999774e+03, 4.148717999999999847e+03, 4.191795000000000073e+03, 5.136922999999999774e+03, 0.000000000000000000e+00, 0.000000000000000000e+00, 1.000000000000000000e+02
1.170000000000000000e+02, 5.094872000000000298e+03, 4.194872000000000298e+03, 4.150769000000000233e+03, 4.179487000000000080e+03, 5.150256000000000313e+03, 0.000000000000000000e+00, 0.000000000000000000e+00, 1.000000000000000000e+02
1.180000000000000000e+02, 5.128204999999999927e+03, 4.198974000000000160e+03, 4.168204999999999927e+03, 4.176922999999999774e+03, 5.177435999999999694e+03, 0.000000000000000000e+00, 0.000000000000000000e+00, 1.000000000000000000e+02
1.190000000000000000e+02, 5.142564000000000306e+03, 4.215385000000000218e+03, 4.170769000000000233e+03, 4.190769000000000233e+03, 5.192307999999999993e+03, 0.000000000000000000e+00, 0.000000000000000000e+00, 1.000000000000000000e+02
1.200000000000000000e+02, 5.134359000000000378e+03, 4.221537999999999556e+03, 4.172820999999999913e+03, 4.195385000000000218e+03, 5.197435999999999694e+03, 0.000000000000000000e+00, 0.000000000000000000e+00, 1.000000000000000000e+02
1.210000000000000000e+02, 5.140512999999999920e+03, 4.217435999999999694e+03, 4.190256000000000313e+03, 4.192820999999999913e+03, 5.211282000000000153e+03, 0.000000000000000000e+00, 0.000000000000000000e+00, 1.000000000000000000e+02
1.220000000000000000e+02, 5.154359000000000378e+03, 4.219487000000000080e+03, 4.198462000000000444e+03, 4.201537999999999556e+03, 5.218974000000000160e+03, 0.000000000000000000e+00, 0.000000000000000000e+00, 1.000000000000000000e+02
1.230000000000000000e+02, 5.157948999999999614e+03, 4.219487000000000080e+03, 4.192820999999999913e+03, 4.204614999999999782e+03, 5.211795000000000073e+03, 0.000000000000000000e+00, 0.000000000000000000e+00, 1.000000000000000000e+02
1.240000000000000000e+02, 5.158974000000000160e+03, 4.207179000000000087e+03, 4.186667000000000371e+03, 4.197435999999999694e+03, 5.201025999999999840e+03, 0.000000000000000000e+00, 0.000000000000000000e+00, 1.000000000000000000e+02
1.250000000000000000e+02, 5.175385000000000218e+03, 4.198974000000000160e+03, 4.180512999999999920e+03, 4.201025999999999840e+03, 5.209743999999999687e+03, 0.000000000000000000e+00, 0.000000000000000000e+00, 1.000000000000000000e+02
1.260000000000000000e+02, 5.187692000000000007e+03, 4.205127999999999702e+03, 4.167179000000000087e+03, 4.200512999999999920e+03, 5.217435999999999694e+03, 0.000000000000000000e+00, 0.000000000000000000e+00, 1.000000000000000000e+02
1.270000000000000000e+02, 5.181025999999999840e+03, 4.211282000000000153e+03, 4.158462000000000444e+03, 4.182051000000000386e+03, 5.210256000000000313e+03, 0.000000000000000000e+00, 0.000000000000000000e+00, 1.000000000000000000e+02
0.000000000000000000e+00, 5.182051000000000386e+03, 4.217435999999999694e+03, 4.162051000000000386e+03, 4.177435999999999694e+03, 5.212307999999999993e+03, 0.000000000000000000e+00, 0.000000000000000000e+00, 1.000000000000000000e+02
1.000000000000000000e+00, 5.192820999999999913e+03, 4.215385000000000218e+03, 4.162051000000000386e+03, 4.191795000000000073e+03, 5.207179000000000087e+03, 0.000000000000000000e+00, 0.000000000000000000e+00, 1.000000000000000000e+02
2.000000000000000000e+00, 5.192307999999999993e+03, 4.215385000000000218e+03, 4.170769000000000233e+03, 4.194872000000000298e+03, 5.199487000000000080e+03, 0.000000000000000000e+00, 0.000000000000000000e+00, 1.000000000000000000e+02
3.000000000000000000e+00, 5.185127999999999702e+03, 4.223590000000000146e+03, 4.183590000000000146e+03, 4.182564000000000306e+03, 5.210256000000000313e+03, 0.000000000000000000e+00, 0.000000000000000000e+00, 1.000000000000000000e+02
4.000000000000000000e+00, 5.188717999999999847e+03, 4.229743999999999687e+03, 4.178462000000000444e+03, 4.181025999999999840e+03, 5.214872000000000298e+03, 0.000000000000000000e+00, 0.000000000000000000e+00, 1.000000000000000000e+02
5.000000000000000000e+00, 5.199487000000000080e+03, 4.227692000000000007e+03, 4.173332999999999629e+03, 4.194359000000000378e+03, 5.214359000000000378e+03, 0.000000000000000000e+00, 0.000000000000000000e+00, 1.000000000000000000e+02
6.000000000000000000e+00, 5.201537999999999556e+03, 4.221537999999999556e+03, 4.176922999999999774e+03, 4.198974000000000160e+03, 5.224103000000000065e+03, 0.000000000000000000e+00, 0.000000000000000000e+00, 1.000000000000000000e+02
7.000000000000000000e+00, 5.197948999999999614e+03, 4.211282000000000153e+03, 4.182051000000000386e+03, 4.186154000000000451e+03, 5.232307999999999993e+03, 0.000000000000000000e+00, 0.000000000000000000e+00, 1.000000000000000000e+02
8.000000000000000000e+00, 5.195896999999999935e+03, 4.213332999999999629e+03, 4.183590000000000146e+03, 4.174872000000000298e+03, 5.228204999999999927e+03, 0.000000000000000000e+00, 0.000000000000000000e+00, 1.000000000000000000e+02
9.000000000000000000e+00, 5.197435999999999694e+03, 4.229743999999999687e+03, 4.178462000000000444e+03, 4.184103000000000065e+03, 5.241025999999999840e+03, 0.000000000000000000e+00, 0.000000000000000000e+00, 1.000000000000000000e+02
1.000000000000000000e+01, 5.194872000000000298e+03, 4.235896999999999935e+03, 4.173845999999999549e+03, 4.189743999999999687e+03, 5.265127999999999702e+03, 0.000000000000000000e+00, 0.000000000000000000e+00, 1.000000000000000000e+02
1.100000000000000000e+01, 5.169743999999999687e+03, 4.227692000000000007e+03, 4.169743999999999687e+03, 4.170256000000000313e+03, 5.252820999999999913e+03, 0.000000000000000000e+00, 0.000000000000000000e+00, 1.000000000000000000e+02
1.200000000000000000e+01, 5.129743999999999687e+03, 4.225640999999999622e+03, 4.163077000000000226e+03, 4.160512999999999920e+03, 5.232820999999999913e+03, 0.000000000000000000e+00, 0.000000000000000000e+00, 1.000000000000000000e+02
1.300000000000000000e+01, 5.091282000000000153e+03, 4.231795000000000073e+03, 4.173332999999999629e+03, 4.182051000000000386e+03, 5.248717999999999847e+03, 0.000000000000000000e+00, 0.000000000000000000e+00, 1.000000000000000000e+02
1.400000000000000000e+01, 5.058462000000000444e+03, 4.235896999999999935e+03, 4.194359000000000378e+03, 4.200512999999999920e+03, 5.264103000000000065e+03, 0.000000000000000000e+00, 0.000000000000000000e+00, 1.000000000000000000e+02
1.500000000000000000e+01, 5.036922999999999774e+03, 4.242051000000000386e+03, 4.190769000000000233e+03, 4.206154000000000451e+03, 5.262564000000000306e+03, 0.000000000000000000e+00, 0.000000000000000000e+00, 1.000000000000000000e+02
1.600000000000000000e+01, 5.026154000000000451e+03, 4.244103000000000065e+03, 4.174872000000000298e+03, 4.206154000000000451e+03, 5.261025999999999840e+03, 0.000000000000000000e+00, 0.000000000000000000e+00, 1.000000000000000000e+02
1.700000000000000000e+01, 5.017948999999999614e+03, 4.244103000000000065e+03, 4.179487000000000080e+03, 4.197435999999999694e+03, 5.263590000000000146e+03, 0.000000000000000000e+00, 0.000000000000000000e+00, 1.000000000000000000e+02
1.800000000000000000e+01, 5.018974000000000160e+03, 4.244103000000000065e+03, 4.192307999999999993e+03, 4.194359000000000378e+03, 5.270769000000000233e+03, 0.000000000000000000e+00, 0.000000000000000000e+00, 1.000000000000000000e+02
1.900000000000000000e+01, 5.022051000000000386e+03, 4.242051000000000386e+03, 4.191795000000000073e+03, 4.193332999999999629e+03, 5.277948999999999614e+03, 0.000000000000000000e+00, 0.000000000000000000e+00, 1.000000000000000000e+02
2.000000000000000000e+01, 5.022051000000000386e+03, 4.244103000000000065e+03, 4.191282000000000153e+03, 4.191282000000000153e+03, 5.282051000000000386e+03, 0.000000000000000000e+00, 0.000000000000000000e+00, 1.000000000000000000e+02
2.100000000000000000e+01, 5.021537999999999556e+03, 4.248204999999999927e+03, 4.193845999999999549e+03, 4.196922999999999774e+03, 5.265127999999999702e+03, 0.000000000000000000e+00, 0.000000000000000000e+00, 1.000000000000000000e+02
2.200000000000000000e+01, 5.023077000000000226e+03, 4.244103000000000065e+03, 4.198974000000000160e+03, 4.204103000000000065e+03, 5.232307999999999993e+03, 0.000000000000000000e+00, 0.000000000000000000e+00, 1.000000000000000000e+02
2.300000000000000000e+01, 5.031795000000000073e+03, 4.248204999999999927e+03, 4.205640999999999622e+03, 4.206154000000000451e+03, 5.217435999999999694e+03, 0.000000000000000000e+00, 0.000000000000000000e+00, 1.000000000000000000e+02
2.400000000000000000e+01, 5.034872000000000298e+03, 4.250256000000000313e+03, 4.189230999999999767e+03, 4.187692000000000007e+03, 5.209743999999999687e+03, 0.000000000000000000e+00, 0.000000000000000000e+00, 1.000000000000000000e+02
2.500000000000000000e+01, 5.032307999999999993e+03, 4.244103000000000065e+03, 4.174872000000000298e+03, 4.174359000000000378e+03, 5.207692000000000007e+03, 0.000000000000000000e+00, 0.000000000000000000e+00, 1.000000000000000000e+02
2.600000000000000000e+01, 5.033845999999999549e+03, 4.246154000000000451e+03, 4.186667000000000371e+03, 4.189230999999999767e+03, 5.216409999999999854e+03, 0.000000000000000000e+00, 0.000000000000000000e+00, 1.000000000000000000e+02
2.700000000000000000e+01, 5.030256000000000313e+03, 4.248204999999999927e+03, 4.184103000000000065e+03, 4.195896999999999935e+03, 5.207179000000000087e+03, 0.000000000000000000e+00, 0.000000000000000000e+00, 1.000000000000000000e+02
2.800000000000000000e+01, 5.020512999999999920e+03, 4.237948999999999614e+03, 4.166154000000000451e+03, 4.176922999999999774e+03, 5.180000000000000000e+03, 0.000000000000000000e+00, 0.000000000000000000e+00, 1.000000000000000000e+02
2.900000000000000000e+01, 5.015896999999999935e+03, 4.231795000000000073e+03, 4.170256000000000313e+03, 4.161537999999999556e+03, 5.171795000000000073e+03, 0.000000000000000000e+00, 0.000000000000000000e+00, 1.000000000000000000e+02
3.000000000000000000e+01, 5.030256000000000313e+03, 4.240000000000000000e+03, 4.195385000000000218e+03, 4.173332999999999629e+03, 5.194872000000000298e+03, 0.000000000000000000e+00, 0.000000000000000000e+00, 1.000000000000000000e+02
3.100000000000000000e+01, 5.052307999999999993e+03, 4.252307999999999993e+03, 4.214359000000000378e+03, 4.193332999999999629e+03, 5.222051000000000386e+03, 0.000000000000000000e+00, 0.000000000000000000e+00, 1.000000000000000000e+02
3.200000000000000000e+01, 5.062564000000000306e+03, 4.254359000000000378e+03, 4.219487000000000080e+03, 4.209230999999999767e+03, 5.232820999999999913e+03, 0.000000000000000000e+00, 0.000000000000000000e+00, 1.000000000000000000e+02
3.300000000000000000e+01, 5.063590000000000146e+03, 4.252307999999999993e+03, 4.221537999999999556e+03, 4.211795000000000073e+03, 5.225127999999999702e+03, 0.000000000000000000e+00, 0.000000000000000000e+00, 1.000000000000000000e+02
3.400000000000000000e+01, 5.059487000000000080e+03, 4.248204999999999927e+03, 4.223077000000000226e+03, 4.200000000000000000e+03, 5.203590000000000146e+03, 0.000000000000000000e+00, 0.000000000000000000e+00, 1.000000000000000000e+02
3.500000000000000000e+01, 5.057948999999999614e+03, 4.240000000000000000e+03, 4.224614999999999782e+03, 4.193845999999999549e+03, 5.201025999999999840e+03, 0.000000000000000000e+00, 0.000000000000000000e+00, 1.000000000000000000e+02
3.600000000000000000e+01, 5.065127999999999702e+03, 4.242051000000000386e+03, 4.224614999999999782e+03, 4.203590000000000146e+03, 5.219487000000000080e+03, 0.000000000000000000e+00, 0.000000000000000000e+00, 1.000000000000000000e+02
3.700000000000000000e+01, 5.073332999999999629e+03, 4.244103000000000065e+03, 4.218974000000000160e+03, 4.211795000000000073e+03, 5.224103000000000065e+03, 0.000000000000000000e+00, 0.000000000000000000e+00, 1.000000000000000000e+02
3.800000000000000000e+01, 5.078462000000000444e+03, 4.235896999999999935e+03, 4.220000000000000000e+03, 4.203590000000000146e+03, 5.230256000000000313e+03, 0.000000000000000000e+00, 0.000000000000000000e+00, 1.000000000000000000e+02
3.900000000000000000e+01, 5.072307999999999993e+03, 4.227692000000000007e+03, 4.215896999999999935e+03, 4.190256000000000313e+03, 5.241025999999999840e+03, 0.000000000000000000e+00, 0.000000000000000000e+00, 1.000000000000000000e+02
4.000000000000000000e+01, 5.065127999999999702e+03, 4.233845999999999549e+03, 4.208204999999999927e+03, 4.186154000000000451e+03, 5.234359000000000378e+03, 0.000000000000000000e+00, 0.000000000000000000e+00, 1.000000000000000000e+02
4.100000000000000000e+01, 5.071282000000000153e+03, 4.231795000000000073e+03, 4.217948999999999614e+03, 4.193332999999999629e+03, 5.225640999999999622e+03, 0.000000000000000000e+00, 0.000000000000000000e+00, 1.000000000000000000e+02
4.200000000000000000e+01, 5.069230999999999767e+03, 4.231795000000000073e+03, 4.230256000000000313e+03, 4.196409999999999854e+03, 5.227179000000000087e+03, 0.000000000000000000e+00, 0.000000000000000000e+00, 1.000000000000000000e+02
4.300000000000000000e+01, 5.063590000000000146e+03, 4.246154000000000451e+03, 4.234359000000000378e+03, 4.195896999999999935e+03, 5.235896999999999935e+03, 0.000000000000000000e+00, 0.000000000000000000e+00, 1.000000000000000000e+02
4.400000000000000000e+01, 5.074359000000000378e+03, 4.244103000000000065e+03, 4.231282000000000153e+03, 4.191282000000000153e+03, 5.237435999999999694e+03, 0.000000000000000000e+00, 0.000000000000000000e+00, 1.000000000000000000e+02
4.500000000000000000e+01, 5.085640999999999622e+03, 4.227692000000000007e+03, 4.223590000000000146e+03, 4.186154000000000451e+03, 5.230256000000000313e+03, 0.000000000000000000e+00, 0.000000000000000000e+00, 1.000000000000000000e+02
4.600000000000000000e+01, 5.083077000000000226e+03, 4.229743999999999687e+03, 4.226667000000000371e+03, 4.194872000000000298e+03, 5.236922999999999774e+03, 0.000000000000000000e+00, 0.000000000000000000e+00, 1.000000000000000000e+02
4.700000000000000000e+01, 5.071282000000000153e+03, 4.231795000000000073e+03, 4.228717999999999847e+03, 4.201537999999999556e+03, 5.239487000000000080e+03, 0.000000000000000000e+00, 0.000000000000000000e+00, 1.000000000000000000e+02
4.800000000000000000e+01, 5.062051000000000386e+03, 4.217435999999999694e+03, 4.218974000000000160e+03, 4.186667000000000371e+03, 5.224614999999999782e+03, 0.000000000000000000e+00, 0.000000000000000000e+00, 1.000000000000000000e+02
4.900000000000000000e+01, 5.052820999999999913e+03, 4.215385000000000218e+03, 4.207692000000000007e+03, 4.171795000000000073e+03, 5.211282000000000153e+03, 0.000000000000000000e+00, 0.000000000000000000e+00, 1.000000000000000000e+02
5.000000000000000000e+01, 5.046667000000000371e+03, 4.225640999999999622e+03, 4.206667000000000371e+03, 4.183077000000000226e+03, 5.212307999999999993e+03, 0.000000000000000000e+00, 0.000000000000000000e+00, 1.000000000000000000e+02
5.100000000000000000e+01, 5.043077000000000226e+03, 4.221537999999999556e+03, 4.213332999999999629e+03, 4.196409999999999854e+03, 5.215896999999999935e+03, 0.000000000000000000e+00, 0.000000000000000000e+00, 1.000000000000000000e+02
5.200000000000000000e+01, 5.034872000000000298e+03, 4.215385000000000218e+03, 4.208717999999999847e+03, 4.196409999999999854e+03, 5.205127999999999702e+03, 0.000000000000000000e+00, 0.000000000000000000e+00, 1.000000000000000000e+02
5.300000000000000000e+01, 5.034872000000000298e+03, 4.217435999999999694e+03, 4.203590000000000146e+03, 4.193845999999999549e+03, 5.204614999999999782e+03, 0.000000000000000000e+00, 0.000000000000000000e+00, 1.000000000000000000e+02
5.400000000000000000e+01, 5.038974000000000160e+03, 4.217435999999999694e+03, 4.207179000000000087e+03, 4.191795000000000073e+03, 5.210256000000000313e+03, 0.000000000000000000e+00, 0.000000000000000000e+00, 1.000000000000000000e+02
5.500000000000000000e+01, 5.035385000000000218e+03, 4.213332999999999629e+03, 4.213845999999999549e+03, 4.192307999999999993e+03, 5.204614999999999782e+03, 0.000000000000000000e+00, 0.000000000000000000e+00, 1.000000000000000000e+02
5.600000000000000000e+01, 5.031795000000000073e+03, 4.223590000000000146e+03, 4.221025999999999840e+03, 4.195896999999999935e+03, 5.203077000000000226e+03, 0.000000000000000000e+00, 0.000000000000000000e+00, 1.000000000000000000e+02
5.700000000000000000e+01, 5.025127999999999702e+03, 4.235896999999999935e+03, 4.224103000000000065e+03, 4.192820999999999913e+03, 5.198462000000000444e+03, 0.000000000000000000e+00, 0.000000000000000000e+00, 1.000000000000000000e+02
5.800000000000000000e+01, 5.014872000000000298e+03, 4.233845999999999549e+03, 4.219487000000000080e+03, 4.184103000000000065e+03, 5.190769000000000233e+03, 0.000000000000000000e+00, 0.000000000000000000e+00, 1.000000000000000000e+02
5.900000000000000000e+01, 5.016922999999999774e+03, 4.231795000000000073e+03, 4.213332999999999629e+03, 4.178974000000000160e+03, 5.194872000000000298e+03, 0.000000000000000000e+00, 0.000000000000000000e+00, 1.000000000000000000e+02
6.000000000000000000e+01, 5.025640999999999622e+03, 4.240000000000000000e+03, 4.211282000000000153e+03, 4.180000000000000000e+03, 5.203590000000000146e+03, 0.000000000000000000e+00, 0.000000000000000000e+00, 1.000000000000000000e+02
6.100000000000000000e+01, 5.022564000000000306e+03, 4.237948999999999614e+03, 4.217948999999999614e+03, 4.187692000000000007e+03, 5.217435999999999694e+03, 0.000000000000000000e+00, 0.000000000000000000e+00, 1.000000000000000000e+02
6.200000000000000000e+01, 5.011795000000000073e+03, 4.235896999999999935e+03, 4.225127999999999702e+03, 4.200512999999999920e+03, 5.220512999999999920e+03, 0.000000000000000000e+00, 0.000000000000000000e+00, 1.000000000000000000e+02
6.300000000000000000e+01, 5.007692000000000007e+03, 4.244103000000000065e+03, 4.222051000000000386e+03, 4.206667000000000371e+03, 5.207179000000000087e+03, 0.000000000000000000e+00, 0.000000000000000000e+00, 1.000000000000000000e+02
6.400000000000000000e+01, 5.003077000000000226e+03, 4.240000000000000000e+03, 4.211282000000000153e+03, 4.197435999999999694e+03, 5.195896999999999935e+03, 0.000000000000000000e+00, 0.000000000000000000e+00, 1.000000000000000000e+02
6.500000000000000000e+01, 4.985640999999999622e+03, 4.227692000000000007e+03, 4.202564000000000306e+03, 4.181537999999999556e+03, 5.181537999999999556e+03, 0.000000000000000000e+00, 0.000000000000000000e+00, 1.000000000000000000e+02
6.600000000000000000e+01, 4.969743999999999687e+03, 4.229743999999999687e+03, 4.206154000000000451e+03, 4.173845999999999549e+03, 5.167179000000000087e+03, 0.000000000000000000e+00, 0.000000000000000000e+00, 1.000000000000000000e+02
6.700000000000000000e+01, 4.965127999999999702e+03, 4.227692000000000007e+03, 4.207179000000000087e+03, 4.177948999999999614e+03, 5.156409999999999854e+03, 0.000000000000000000e+00, 0.000000000000000000e+00, 1.000000000000000000e+02
6.800000000000000000e+01, 4.969230999999999767e+03, 4.225640999999999622e+03, 4.206154000000000451e+03, 4.181025999999999840e+03, 5.154872000000000298e+03, 0.000000000000000000e+00, 0.000000000000000000e+00, 1.000000000000000000e+02
6.900000000000000000e+01, 4.981025999999999840e+03, 4.227692000000000007e+03, 4.214359000000000378e+03, 4.185127999999999702e+03, 5.163077000000000226e+03, 0.000000000000000000e+00, 0.000000000000000000e+00, 1.000000000000000000e+02
7.000000000000000000e+01, 4.981537999999999556e+03, 4.227692000000000007e+03, 4.212820999999999913e+03, 4.194872000000000298e+03, 5.168204999999999927e+03, 0.000000000000000000e+00, 0.000000000000000000e+00, 1.000000000000000000e+02
7.100000000000000000e+01, 4.965127999999999702e+03, 4.227692000000000007e+03, 4.207179000000000087e+03, 4.198974000000000160e+03, 5.170769000000000233e+03, 0.000000000000000000e+00, 0.000000000000000000e+00, 1.000000000000000000e+02
7.200000000000000000e+01, 4.949743999999999687e+03, 4.233845999999999549e+03, 4.206154000000000451e+03, 4.192307999999999993e+03, 5.167179000000000087e+03, 0.000000000000000000e+00, 0.000000000000000000e+00, 1.000000000000000000e+02
7.300000000000000000e+01, 4.945640999999999622e+03, 4.231795000000000073e+03, 4.212820999999999913e+03, 4.189230999999999767e+03, 5.156922999999999774e+03, 0.000000000000000000e+00, 0.000000000000000000e+00, 1.000000000000000000e+02
7.400000000000000000e+01, 4.946667000000000371e+03, 4.221537999999999556e+03, 4.217948999999999614e+03, 4.191282000000000153e+03, 5.145640999999999622e+03, 0.000000000000000000e+00, 0.000000000000000000e+00, 1.000000000000000000e+02
7.500000000000000000e+01, 4.938974000000000160e+03, 4.221537999999999556e+03, 4.217435999999999694e+03, 4.185127999999999702e+03, 5.135385000000000218e+03, 0.000000000000000000e+00, 0.000000000000000000e+00, 1.000000000000000000e+02
7.600000000000000000e+01, 4.933332999999999629e+03, 4.225640999999999622e+03, 4.225640999999999622e+03, 4.183590000000000146e+03, 5.135385000000000218e+03, 0.000000000000000000e+00, 0.000000000000000000e+00, 1.000000000000000000e+02
7.700000000000000000e+01, 4.927692000000000007e+03, 4.227692000000000007e+03, 4.227179000000000087e+03, 4.188717999999999847e+03, 5.132307999999999993e+03, 0.000000000000000000e+00, 0.000000000000000000e+00, 1.000000000000000000e+02
7.800000000000000000e+01, 4.912307999999999993e+03, 4.229743999999999687e+03, 4.206667000000000371e+03, 4.181025999999999840e+03, 5.115385000000000218e+03, 0.000000000000000000e+00, 0.000000000000000000e+00, 1.000000000000000000e+02
7.900000000000000000e+01, 4.905127999999999702e+03, 4.233845999999999549e+03, 4.197435999999999694e+03, 4.178462000000000444e+03, 5.107179000000000087e+03, 0.000000000000000000e+00, 0.000000000000000000e+00, 1.000000000000000000e+02
8.000000000000000000e+01, 4.903077000000000226e+03, 4.237948999999999614e+03, 4.206667000000000371e+03, 4.184614999999999782e+03, 5.102564000000000306e+03, 0.000000000000000000e+00, 0.000000000000000000e+00, 1.000000000000000000e+02
8.100000000000000000e+01, 4.898974000000000160e+03, 4.244103000000000065e+03, 4.214872000000000298e+03, 4.182051000000000386e+03, 5.101537999999999556e+03, 0.000000000000000000e+00, 0.000000000000000000e+00, 1.000000000000000000e+02
8.200000000000000000e+01, 4.896922999999999774e+03, 4.252307999999999993e+03, 4.213332999999999629e+03, 4.178462000000000444e+03, 5.108204999999999927e+03, 0.000000000000000000e+00, 0.000000000000000000e+00, 1.000000000000000000e+02
8.300000000000000000e+01, 4.894359000000000378e+03, 4.258462000000000444e+03, 4.209230999999999767e+03, 4.185127999999999702e+03, 5.102564000000000306e+03, 0.000000000000000000e+00, 0.000000000000000000e+00, 1.000000000000000000e+02
8.400000000000000000e+01, 4.886667000000000371e+03, 4.262564000000000306e+03, 4.210769000000000233e+03, 4.186667000000000371e+03, 5.092820999999999913e+03, 0.000000000000000000e+00, 0.000000000000000000e+00, 1.000000000000000000e+02
8.500000000000000000e+01, 4.873332999999999629e+03, 4.262564000000000306e+03, 4.211795000000000073e+03, 4.176922999999999774e+03, 5.083077000000000226e+03, 0.000000000000000000e+00, 0.000000000000000000e+00, 1.000000000000000000e+02
8.600000000000000000e+01, 4.871282000000000153e+03, 4.262564000000000306e+03, 4.212307999999999993e+03, 4.181025999999999840e+03, 5.069230999999999767e+03, 0.000000000000000000e+00, 0.000000000000000000e+00, 1.000000000000000000e+02
8.700000000000000000e+01, 4.873845999999999549e+03, 4.268717999999999847e+03, 4.218974000000000160e+03, 4.193845999999999549e+03, 5.060512999999999920e+03, 0.000000000000000000e+00, 0.000000000000000000e+00, 1.000000000000000000e+02
8.800000000000000000e+01, 4.865640999999999622e+03, 4.272820999999999913e+03, 4.221025999999999840e+03, 4.190769000000000233e+03, 5.062051000000000386e+03, 0.000000000000000000e+00, 0.000000000000000000e+00, 1.000000000000000000e+02
8.900000000000000000e+01, 4.861025999999999840e+03, 4.268717999999999847e+03, 4.215385000000000218e+03, 4.189230999999999767e+03, 5.069743999999999687e+03, 0.000000000000000000e+00, 0.000000000000000000e+00, 1.000000000000000000e+02
9.000000000000000000e+01, 4.857435999999999694e+03, 4.266667000000000371e+03, 4.210256000000000313e+03, 4.193845999999999549e+03, 5.063077000000000226e+03, 0.000000000000000000e+00, 0.000000000000000000e+00, 1.000000000000000000e+02
9.100000000000000000e+01, 4.843077000000000226e+03, 4.258462000000000444e+03, 4.211282000000000153e+03, 4.187692000000000007e+03, 5.048204999999999927e+03, 0.000000000000000000e+00, 0.000000000000000000e+00, 1.000000000000000000e+02
9.200000000000000000e+01, 4.836409999999999854e+03, 4.252307999999999993e+03, 4.211795000000000073e+03, 4.178462000000000444e+03, 5.043590000000000146e+03, 0.000000000000000000e+00, 0.000000000000000000e+00, 1.000000000000000000e+02
9.300000000000000000e+01, 4.841025999999999840e+03, 4.256409999999999854e+03, 4.204614999999999782e+03, 4.184103000000000065e+03, 5.045640999999999622e+03, 0.000000000000000000e+00, 0.000000000000000000e+00, 1.000000000000000000e+02
9.400000000000000000e+01, 4.839487000000000080e+03, 4.264614999999999782e+03, 4.204614999999999782e+03, 4.195896999999999935e+03, 5.048717999999999847e+03, 0.000000000000000000e+00, 0.000000000000000000e+00, 1.000000000000000000e+02
9.500000000000000000e+01, 4.828204999999999927e+03, 4.262564000000000306e+03, 4.207179000000000087e+03, 4.195896999999999935e+03, 5.040000000000000000e+03, 0.000000000000000000e+00, 0.000000000000000000e+00, 1.000000000000000000e+02
9.600000000000000000e+01, 4.812307999999999993e+03, 4.258462000000000444e+03, 4.201537999999999556e+03, 4.185127999999999702e+03, 5.022564000000000306e+03, 0.000000000000000000e+00, 0.000000000000000000e+00, 1.000000000000000000e+02
9.700000000000000000e+01, 4.803590000000000146e+03, 4.258462000000000444e+03, 4.200000000000000000e+03, 4.181025999999999840e+03, 5.022051000000000386e+03, 0.000000000000000000e+00, 0.000000000000000000e+00, 1.000000000000000000e+02
9.800000000000000000e+01, 4.812820999999999913e+03, 4.258462000000000444e+03, 4.211282000000000153e+03, 4.189743999999999687e+03, 5.028717999999999847e+03, 0.000000000000000000e+00, 0.000000000000000000e+00, 1.000000000000000000e+02
9.900000000000000000e+01, 4.816922999999999774e+03, 4.270769000000000233e+03, 4.223077000000000226e+03, 4.203077000000000226e+03, 5.011795000000000073e+03, 0.000000000000000000e+00, 0.000000000000000000e+00, 1.000000000000000000e+02
1.000000000000000000e+02, 4.796922999999999774e+03, 4.272820999999999913e+03, 4.213845999999999549e+03, 4.208717999999999847e+03, 4.986667000000000371e+03, 0.000000000000000000e+00, 0.000000000000000000e+00, 1.000000000000000000e+02
1.010000000000000000e+02, 4.781537999999999556e+03, 4.262564000000000306e+03, 4.195385000000000218e+03, 4.204103000000000065e+03, 4.985640999999999622e+03, 0.000000000000000000e+00, 0.000000000000000000e+00, 1.000000000000000000e+02
1.020000000000000000e+02, 4.776922999999999774e+03, 4.256409999999999854e+03, 4.193332999999999629e+03, 4.190256000000000313e+03, 4.978974000000000160e+03, 0.000000000000000000e+00, 0.000000000000000000e+00, 1.000000000000000000e+02
1.030000000000000000e+02, 4.752820999999999913e+03, 4.248204999999999927e+03, 4.193845999999999549e+03, 4.186154000000000451e+03, 4.940512999999999920e+03, 0.000000000000000000e+00, 0.000000000000000000e+00, 1.000000000000000000e+02
1.040000000000000000e+02, 4.738462000000000444e+03, 4.244103000000000065e+03, 4.193845999999999549e+03, 4.199487000000000080e+03, 4.931282000000000153e+03, 0.000000000000000000e+00, 0.000000000000000000e+00, 1.000000000000000000e+02
1.050000000000000000e+02, 4.748204999999999927e+03, 4.254359000000000378e+03, 4.197435999999999694e+03, 4.200000000000000000e+03, 4.947692000000000007e+03, 0.000000000000000000e+00, 0.000000000000000000e+00, 1.000000000000000000e+02
1.060000000000000000e+02, 4.741025999999999840e+03, 4.266667000000000371e+03, 4.194872000000000298e+03, 4.191795000000000073e+03, 4.932307999999999993e+03, 0.000000000000000000e+00, 0.000000000000000000e+00, 1.000000000000000000e+02
1.070000000000000000e+02, 4.724103000000000065e+03, 4.258462000000000444e+03, 4.191795000000000073e+03, 4.195385000000000218e+03, 4.912820999999999913e+03, 0.000000000000000000e+00, 0.000000000000000000e+00, 1.000000000000000000e+02
1.080000000000000000e+02, 4.715896999999999935e+03, 4.254359000000000378e+03, 4.190769000000000233e+03, 4.195385000000000218e+03, 4.910256000000000313e+03, 0.000000000000000000e+00, 0.000000000000000000e+00, 1.000000000000000000e+02
1.090000000000000000e+02, 4.705127999999999702e+03, 4.258462000000000444e+03, 4.189743999999999687e+03, 4.191282000000000153e+03, 4.909230999999999767e+03, 0.000000000000000000e+00, 0.000000000000000000e+00, 1.000000000000000000e+02
1.100000000000000000e+02, 4.692820999999999913e+03, 4.250256000000000313e+03, 4.189230999999999767e+03, 4.190256000000000313e+03, 4.902051000000000386e+03, 0.000000000000000000e+00, 0.000000000000000000e+00, 1.000000000000000000e+02
1.110000000000000000e+02, 4.693845999999999549e+03, 4.248204999999999927e+03, 4.188717999999999847e+03, 4.183077000000000226e+03, 4.887179000000000087e+03, 0.000000000000000000e+00, 0.000000000000000000e+00, 1.000000000000000000e+02
1.120000000000000000e+02, 4.699487000000000080e+03, 4.258462000000000444e+03, 4.192307999999999993e+03, 4.184614999999999782e+03, 4.874872000000000298e+03, 0.000000000000000000e+00, 0.000000000000000000e+00, 1.000000000000000000e+02
1.130000000000000000e+02, 4.684103000000000065e+03, 4.262564000000000306e+03, 4.200000000000000000e+03, 4.192820999999999913e+03, 4.862051000000000386e+03, 0.000000000000000000e+00, 0.000000000000000000e+00, 1.000000000000000000e+02
1.140000000000000000e+02, 4.656922999999999774e+03, 4.258462000000000444e+03, 4.207179000000000087e+03, 4.188717999999999847e+03, 4.849743999999999687e+03, 0.000000000000000000e+00, 0.000000000000000000e+00, 1.000000000000000000e+02
1.150000000000000000e+02, 4.647179000000000087e+03, 4.258462000000000444e+03, 4.208717999999999847e+03, 4.185127999999999702e+03, 4.842051000000000386e+03, 0.000000000000000000e+00, 0.000000000000000000e+00, 1.000000000000000000e+02
1.160000000000000000e+02, 4.648204999999999927e+03, 4.252307999999999993e+03, 4.211795000000000073e+03, 4.196409999999999854e+03, 4.837948999999999614e+03, 0.000000000000000000e+00, 0.000000000000000000e+00, 1.000000000000000000e+02
1.170000000000000000e+02, 4.644103000000000065e+03, 4.244103000000000065e+03, 4.219487000000000080e+03, 4.206667000000000371e+03, 4.845127999999999702e+03, 0.000000000000000000e+00, 0.000000000000000000e+00, 1.000000000000000000e+02
1.180000000000000000e+02, 4.635385000000000218e+03, 4.250256000000000313e+03, 4.220512999999999920e+03, 4.206154000000000451e+03, 4.850256000000000313e+03, 0.000000000000000000e+00, 0.000000000000000000e+00, 1.000000000000000000e+02
1.190000000000000000e+02, 4.634872000000000298e+03, 4.256409999999999854e+03, 4.211282000000000153e+03, 4.203077000000000226e+03, 4.842564000000000306e+03, 0.000000000000000000e+00, 0.000000000000000000e+00, 1.000000000000000000e+02
1.200000000000000000e+02, 4.634359000000000378e+03, 4.250256000000000313e+03, 4.197948999999999614e+03, 4.202564000000000306e+03, 4.828204999999999927e+03, 0.000000000000000000e+00, 0.000000000000000000e+00, 1.000000000000000000e+02
1.210000000000000000e+02, 4.623077000000000226e+03, 4.246154000000000451e+03, 4.184614999999999782e+03, 4.200000000000000000e+03, 4.810256000000000313e+03, 0.000000000000000000e+00, 0.000000000000000000e+00, 1.000000000000000000e+02
1.220000000000000000e+02, 4.615385000000000218e+03, 4.244103000000000065e+03, 4.186667000000000371e+03, 4.192307999999999993e+03, 4.789230999999999767e+03, 0.000000000000000000e+00, 0.000000000000000000e+00, 1.000000000000000000e+02
1.230000000000000000e+02, 4.611282000000000153e+03, 4.248204999999999927e+03, 4.196409999999999854e+03, 4.190256000000000313e+03, 4.767179000000000087e+03, 0.000000000000000000e+00, 0.000000000000000000e+00, 1.000000000000000000e+02
1.240000000000000000e+02, 4.607179000000000087e+03, 4.256409999999999854e+03, 4.201537999999999556e+03, 4.197435999999999694e+03, 4.755385000000000218e+03, 0.000000000000000000e+00, 0.000000000000000000e+00, 1.000000000000000000e+02
1.250000000000000000e+02, 4.605640999999999622e+03, 4.252307999999999993e+03, 4.200512999999999920e+03, 4.197435999999999694e+03, 4.750256000000000313e+03, 0.000000000000000000e+00, 0.000000000000000000e+00, 1.000000000000000000e+02
1.260000000000000000e+02, 4.603077000000000226e+03, 4.246154000000000451e+03, 4.190256000000000313e+03, 4.180000000000000000e+03, 4.741025999999999840e+03, 0.000000000000000000e+00, 0.000000000000000000e+00, 1.000000000000000000e+02
1.270000000000000000e+02, 4.603077000000000226e+03, 4.252307999999999993e+03, 4.188717999999999847e+03, 4.171795000000000073e+03, 4.748717999999999847e+03, 0.000000000000000000e+00, 0.000000000000000000e+00, 1.000000000000000000e+02
0.000000000000000000e+00, 4.605640999999999622e+03, 4.256409999999999854e+03, 4.199487000000000080e+03, 4.189230999999999767e+03, 4.763590000000000146e+03, 0.000000000000000000e+00, 0.000000000000000000e+00, 1.000000000000000000e+02
1.000000000000000000e+00, 4.600000000000000000e+03, 4.250256000000000313e+03, 4.200000000000000000e+03, 4.203077000000000226e+03, 4.750256000000000313e+03, 0.000000000000000000e+00, 0.000000000000000000e+00, 1.000000000000000000e+02
2.000000000000000000e+00, 4.588717999999999847e+03, 4.242051000000000386e+03, 4.191795000000000073e+03, 4.191795000000000073e+03, 4.728204999999999927e+03, 0.000000000000000000e+00, 0.000000000000000000e+00, 1.000000000000000000e+02
3.000000000000000000e+00, 4.580512999999999920e+03, 4.235896999999999935e+03, 4.189743999999999687e+03, 4.177948999999999614e+03, 4.718974000000000160e+03, 0.000000000000000000e+00, 0.000000000000000000e+00, 1.000000000000000000e+02
4.000000000000000000e+00, 4.578974000000000160e+03, 4.237948999999999614e+03, 4.192307999999999993e+03, 4.186667000000000371e+03, 4.713845999999999549e+03, 0.000000000000000000e+00, 0.000000000000000000e+00, 1.000000000000000000e+02
5.000000000000000000e+00, 4.575385000000000218e+03, 4.244103000000000065e+03, 4.188717999999999847e+03, 4.196409999999999854e+03, 4.699487000000000080e+03, 0.000000000000000000e+00, 0.000000000000000000e+00, 1.000000000000000000e+02
6.000000000000000000e+00, 4.562564000000000306e+03, 4.246154000000000451e+03, 4.189230999999999767e+03, 4.187692000000000007e+03, 4.681537999999999556e+03, 0.000000000000000000e+00, 0.000000000000000000e+00, 1.000000000000000000e+02
7.000000000000000000e+00, 4.559487000000000080e+03, 4.248204999999999927e+03, 4.206667000000000371e+03, 4.187692000000000007e+03, 4.687179000000000087e+03, 0.000000000000000000e+00, 0.000000000000000000e+00, 1.000000000000000000e+02
8.000000000000000000e+00, 4.562564000000000306e+03, 4.250256000000000313e+03, 4.209230999999999767e+03, 4.193845999999999549e+03, 4.687179000000000087e+03, 0.000000000000000000e+00, 0.000000000000000000e+00, 1.000000000000000000e+02
9.000000000000000000e+00, 4.558974000000000160e+03, 4.246154000000000451e+03, 4.197948999999999614e+03, 4.187179000000000087e+03, 4.666154000000000451e+03, 0.000000000000000000e+00, 0.000000000000000000e+00, 1.000000000000000000e+02
1.000000000000000000e+01, 4.556922999999999774e+03, 4.244103000000000065e+03, 4.205640999999999622e+03, 4.184614999999999782e+03, 4.664103000000000065e+03, 0.000000000000000000e+00, 0.000000000000000000e+00, 1.000000000000000000e+02
1.100000000000000000e+01, 4.557948999999999614e+03, 4.252307999999999993e+03, 4.211282000000000153e+03, 4.192307999999999993e+03, 4.673845999999999549e+03, 0.000000000000000000e+00, 0.000000000000000000e+00, 1.000000000000000000e+02
1.200000000000000000e+01, 4.555385000000000218e+03, 4.254359000000000378e+03, 4.197435999999999694e+03, 4.181025999999999840e+03, 4.660000000000000000e+03, 0.000000000000000000e+00, 0.000000000000000000e+00, 1.000000000000000000e+02
1.300000000000000000e+01, 4.551282000000000153e+03, 4.248204999999999927e+03, 4.187692000000000007e+03, 4.165127999999999702e+03, 4.632820999999999913e+03, 0.000000000000000000e+00, 0.000000000000000000e+00, 1.000000000000000000e+02
1.400000000000000000e+01, 4.557435999999999694e+03, 4.250256000000000313e+03, 4.195385000000000218e+03, 4.182564000000000306e+03, 4.634359000000000378e+03, 0.000000000000000000e+00, 0.000000000000000000e+00, 1.000000000000000000e+02
1.500000000000000000e+01, 4.556922999999999774e+03, 4.252307999999999993e+03, 4.199487000000000080e+03, 4.203590000000000146e+03, 4.652820999999999913e+03, 0.000000000000000000e+00, 0.000000000000000000e+00, 1.000000000000000000e+02
1.600000000000000000e+01, 4.541537999999999556e+03, 4.248204999999999927e+03, 4.191795000000000073e+03, 4.200000000000000000e+03, 4.652820999999999913e+03, 0.000000000000000000e+00, 0.000000000000000000e+00, 1.000000000000000000e+02
1.700000000000000000e+01, 4.534359000000000378e+03, 4.240000000000000000e+03, 4.189230999999999767e+03, 4.184614999999999782e+03, 4.645640999999999622e+03, 0.000000000000000000e+00, 0.000000000000000000e+00, 1.000000000000000000e+02
1.800000000000000000e+01, 4.530769000000000233e+03, 4.242051000000000386e+03, 4.185127999999999702e+03, 4.175896999999999935e+03, 4.640000000000000000e+03, 0.000000000000000000e+00, 0.000000000000000000e+00, 1.000000000000000000e+02
1.900000000000000000e+01, 4.532820999999999913e+03, 4.250256000000000313e+03, 4.186667000000000371e+03, 4.193332999999999629e+03, 4.645127999999999702e+03, 0.000000000000000000e+00, 0.000000000000000000e+00, 1.000000000000000000e+02
2.000000000000000000e+01, 4.542051000000000386e+03, 4.254359000000000378e+03, 4.196922999999999774e+03, 4.216409999999999854e+03, 4.648204999999999927e+03, 0.000000000000000000e+00, 0.000000000000000000e+00, 1.000000000000000000e+02
2.100000000000000000e+01, 4.539487000000000080e+03, 4.256409999999999854e+03, 4.200512999999999920e+03, 4.205127999999999702e+03, 4.635896999999999935e+03, 0.000000000000000000e+00, 0.000000000000000000e+00, 1.000000000000000000e+02
2.200000000000000000e+01, 4.536409999999999854e+03, 4.256409999999999854e+03, 4.204103000000000065e+03, 4.184614999999999782e+03, 4.637948999999999614e+03, 0.000000000000000000e+00, 0.000000000000000000e+00, 1.000000000000000000e+02
2.300000000000000000e+01, 4.535385000000000218e+03, 4.262564000000000306e+03, 4.204103000000000065e+03, 4.191282000000000153e+03, 4.637948999999999614e+03, 0.000000000000000000e+00, 0.000000000000000000e+00, 1.000000000000000000e+02
2.400000000000000000e+01, 4.524103000000000065e+03, 4.256409999999999854e+03, 4.194872000000000298e+03, 4.204614999999999782e+03, 4.611795000000000073e+03, 0.000000000000000000e+00, 0.000000000000000000e+00, 1.000000000000000000e+02
2.500000000000000000e+01, 4.516922999999999774e+03, 4.250256000000000313e+03, 4.191795000000000073e+03, 4.208204999999999927e+03, 4.594872000000000298e+03, 0.000000000000000000e+00, 0.000000000000000000e+00, 1.000000000000000000e+02
2.600000000000000000e+01, 4.512820999999999913e+03, 4.258462000000000444e+03, 4.190769000000000233e+03, 4.197948999999999614e+03, 4.597948999999999614e+03, 0.000000000000000000e+00, 0.000000000000000000e+00, 1.000000000000000000e+02
2.700000000000000000e+01, 4.500000000000000000e+03, 4.260512999999999920e+03, 4.183077000000000226e+03, 4.186667000000000371e+03, 4.597435999999999694e+03, 0.000000000000000000e+00, 0.000000000000000000e+00, 1.000000000000000000e+02
2.800000000000000000e+01, 4.489230999999999767e+03, 4.248204999999999927e+03, 4.177435999999999694e+03, 4.200512999999999920e+03, 4.594359000000000378e+03, 0.000000000000000000e+00, 0.000000000000000000e+00, 1.000000000000000000e+02
2.900000000000000000e+01, 4.491795000000000073e+03, 4.252307999999999993e+03, 4.182051000000000386e+03, 4.216922999999999774e+03, 4.606154000000000451e+03, 0.000000000000000000e+00, 0.000000000000000000e+00, 1.000000000000000000e+02
3.000000000000000000e+01, 4.498974000000000160e+03, 4.262564000000000306e+03, 4.190769000000000233e+03, 4.212307999999999993e+03, 4.623590000000000146e+03, 0.000000000000000000e+00, 0.000000000000000000e+00, 1.000000000000000000e+02
3.100000000000000000e+01, 4.495896999999999935e+03, 4.254359000000000378e+03, 4.192820999999999913e+03, 4.200000000000000000e+03, 4.609743999999999687e+03, 0.000000000000000000e+00, 0.000000000000000000e+00, 1.000000000000000000e+02
3.200000000000000000e+01, 4.490256000000000313e+03, 4.250256000000000313e+03, 4.195896999999999935e+03, 4.196922999999999774e+03, 4.584103000000000065e+03, 0.000000000000000000e+00, 0.000000000000000000e+00, 1.000000000000000000e+02
3.300000000000000000e+01, 4.489230999999999767e+03, 4.256409999999999854e+03, 4.202564000000000306e+03, 4.204614999999999782e+03, 4.578974000000000160e+03, 0.000000000000000000e+00, 0.000000000000000000e+00, 1.000000000000000000e+02
3.400000000000000000e+01, 4.482564000000000306e+03, 4.252307999999999993e+03, 4.200512999999999920e+03, 4.205127999999999702e+03, 4.578974000000000160e+03, 0.000000000000000000e+00, 0.000000000000000000e+00, 1.000000000000000000e+02
3.500000000000000000e+01, 4.479487000000000080e+03, 4.246154000000000451e+03, 4.198462000000000444e+03, 4.203077000000000226e+03, 4.589230999999999767e+03, 0.000000000000000000e+00, 0.000000000000000000e+00, 1.000000000000000000e+02
3.600000000000000000e+01, 4.482051000000000386e+03, 4.246154000000000451e+03, 4.200000000000000000e+03, 4.205127999999999702e+03, 4.596409999999999854e+03, 0.000000000000000000e+00, 0.000000000000000000e+00, 1.000000000000000000e+02
3.700000000000000000e+01, 4.477948999999999614e+03, 4.242051000000000386e+03, 4.198974000000000160e+03, 4.202564000000000306e+03, 4.581025999999999840e+03, 0.000000000000000000e+00, 0.000000000000000000e+00, 1.000000000000000000e+02
3.800000000000000000e+01, 4.470256000000000313e+03, 4.242051000000000386e+03, 4.198462000000000444e+03, 4.200512999999999920e+03, 4.569230999999999767e+03, 0.000000000000000000e+00, 0.000000000000000000e+00, 1.000000000000000000e+02
3.900000000000000000e+01, 4.466154000000000451e+03, 4.252307999999999993e+03, 4.199487000000000080e+03, 4.205127999999999702e+03, 4.577948999999999614e+03, 0.000000000000000000e+00, 0.000000000000000000e+00, 1.000000000000000000e+02
4.000000000000000000e+01, 4.466667000000000371e+03, 4.254359000000000378e+03, 4.201025999999999840e+03, 4.206154000000000451e+03, 4.583590000000000146e+03, 0.000000000000000000e+00, 0.000000000000000000e+00, 1.000000000000000000e+02
4.100000000000000000e+01, 4.465127999999999702e+03, 4.248204999999999927e+03, 4.193845999999999549e+03, 4.199487000000000080e+03, 4.567692000000000007e+03, 0.000000000000000000e+00, 0.000000000000000000e+00, 1.000000000000000000e+02
4.200000000000000000e+01, 4.455896999999999935e+03, 4.252307999999999993e+03, 4.186667000000000371e+03, 4.199487000000000080e+03, 4.559487000000000080e+03, 0.000000000000000000e+00, 0.000000000000000000e+00, 1.000000000000000000e+02
4.300000000000000000e+01, 4.451282000000000153e+03, 4.258462000000000444e+03, 4.195896999999999935e+03, 4.203077000000000226e+03, 4.571282000000000153e+03, 0.000000000000000000e+00, 0.000000000000000000e+00, 1.000000000000000000e+02
4.400000000000000000e+01, 4.452307999999999993e+03, 4.260512999999999920e+03, 4.208204999999999927e+03, 4.204614999999999782e+03, 4.575896999999999935e+03, 0.000000000000000000e+00, 0.000000000000000000e+00, 1.000000000000000000e+02
4.500000000000000000e+01, 4.448204999999999927e+03, 4.270769000000000233e+03, 4.211282000000000153e+03, 4.212307999999999993e+03, 4.577435999999999694e+03, 0.000000000000000000e+00, 0.000000000000000000e+00, 1.000000000000000000e+02
4.600000000000000000e+01, 4.439487000000000080e+03, 4.278974000000000160e+03, 4.206154000000000451e+03, 4.213845999999999549e+03, 4.568717999999999847e+03, 0.000000000000000000e+00, 0.000000000000000000e+00, 1.000000000000000000e+02
4.700000000000000000e+01, 4.442051000000000386e+03, 4.272820999999999913e+03, 4.202051000000000386e+03, 4.212307999999999993e+03, 4.556409999999999854e+03, 0.000000000000000000e+00, 0.000000000000000000e+00, 1.000000000000000000e+02
4.800000000000000000e+01, 4.442051000000000386e+03, 4.268717999999999847e+03, 4.193332999999999629e+03, 4.203077000000000226e+03, 4.557948999999999614e+03, 0.000000000000000000e+00, 0.000000000000000000e+00, 1.000000000000000000e+02
4.900000000000000000e+01, 4.421537999999999556e+03, 4.264614999999999782e+03, 4.182564000000000306e+03, 4.191795000000000073e+03, 4.557435999999999694e+03, 0.000000000000000000e+00, 0.000000000000000000e+00, 1.000000000000000000e+02
5.000000000000000000e+01, 4.413845999999999549e+03, 4.262564000000000306e+03, 4.188204999999999927e+03, 4.198462000000000444e+03, 4.548717999999999847e+03, 0.000000000000000000e+00, 0.000000000000000000e+00, 1.000000000000000000e+02
5.100000000000000000e+01, 4.424103000000000065e+03, 4.274872000000000298e+03, 4.194872000000000298e+03, 4.206154000000000451e+03, 4.542051000000000386e+03, 0.000000000000000000e+00, 0.000000000000000000e+00, 1.000000000000000000e+02
5.200000000000000000e+01, 4.427179000000000087e+03, 4.283077000000000226e+03, 4.196922999999999774e+03, 4.201025999999999840e+03, 4.541025999999999840e+03, 0.000000000000000000e+00, 0.000000000000000000e+00, 1.000000000000000000e+02
5.300000000000000000e+01, 4.425127999999999702e+03, 4.278974000000000160e+03, 4.207179000000000087e+03, 4.200000000000000000e+03, 4.540000000000000000e+03, 0.000000000000000000e+00, 0.000000000000000000e+00, 1.000000000000000000e+02
5.400000000000000000e+01, 4.428717999999999847e+03, 4.285127999999999702e+03, 4.206667000000000371e+03, 4.204103000000000065e+03, 4.538462000000000444e+03, 0.000000000000000000e+00, 0.000000000000000000e+00, 1.000000000000000000e+02
5.500000000000000000e+01, 4.428204999999999927e+03, 4.285127999999999702e+03, 4.198462000000000444e+03, 4.203590000000000146e+03, 4.547692000000000007e+03, 0.000000000000000000e+00, 0.000000000000000000e+00, 1.000000000000000000e+02
5.600000000000000000e+01, 4.415896999999999935e+03, 4.276922999999999774e+03, 4.194872000000000298e+03, 4.208717999999999847e+03, 4.551282000000000153e+03, 0.000000000000000000e+00, 0.000000000000000000e+00, 1.000000000000000000e+02
5.700000000000000000e+01, 4.408204999999999927e+03, 4.276922999999999774e+03, 4.193845999999999549e+03, 4.208717999999999847e+03, 4.531795000000000073e+03, 0.000000000000000000e+00, 0.000000000000000000e+00, 1.000000000000000000e+02
5.800000000000000000e+01, 4.408204999999999927e+03, 4.281025999999999840e+03, 4.196409999999999854e+03, 4.203077000000000226e+03, 4.510769000000000233e+03, 0.000000000000000000e+00, 0.000000000000000000e+00, 1.000000000000000000e+02
5.900000000000000000e+01, 4.403590000000000146e+03, 4.278974000000000160e+03, 4.198462000000000444e+03, 4.214359000000000378e+03, 4.513845999999999549e+03, 0.000000000000000000e+00, 0.000000000000000000e+00, 1.000000000000000000e+02
6.000000000000000000e+01, 4.404103000000000065e+03, 4.278974000000000160e+03, 4.193845999999999549e+03, 4.227692000000000007e+03, 4.538462000000000444e+03, 0.000000000000000000e+00, 0.000000000000000000e+00, 1.000000000000000000e+02
6.100000000000000000e+01, 4.408204999999999927e+03, 4.278974000000000160e+03, 4.186154000000000451e+03, 4.215896999999999935e+03, 4.544614999999999782e+03, 0.000000000000000000e+00, 0.000000000000000000e+00, 1.000000000000000000e+02
6.200000000000000000e+01, 4.396922999999999774e+03, 4.274872000000000298e+03, 4.184103000000000065e+03, 4.199487000000000080e+03, 4.523590000000000146e+03, 0.000000000000000000e+00, 0.000000000000000000e+00, 1.000000000000000000e+02
6.300000000000000000e+01, 4.389230999999999767e+03, 4.278974000000000160e+03, 4.190256000000000313e+03, 4.207179000000000087e+03, 4.521537999999999556e+03, 0.000000000000000000e+00, 0.000000000000000000e+00, 1.000000000000000000e+02
6.400000000000000000e+01, 4.392307999999999993e+03, 4.281025999999999840e+03, 4.196409999999999854e+03, 4.220512999999999920e+03, 4.528204999999999927e+03, 0.000000000000000000e+00, 0.000000000000000000e+00, 1.000000000000000000e+02
6.500000000000000000e+01, 4.387179000000000087e+03, 4.276922999999999774e+03, 4.197435999999999694e+03, 4.226154000000000451e+03, 4.522564000000000306e+03, 0.000000000000000000e+00, 0.000000000000000000e+00, 1.000000000000000000e+02
6.600000000000000000e+01, 4.375896999999999935e+03, 4.274872000000000298e+03, 4.196409999999999854e+03, 4.221537999999999556e+03, 4.514359000000000378e+03, 0.000000000000000000e+00, 0.000000000000000000e+00, 1.000000000000000000e+02
6.700000000000000000e+01, 4.381537999999999556e+03, 4.278974000000000160e+03, 4.195385000000000218e+03, 4.207179000000000087e+03, 4.517435999999999694e+03, 0.000000000000000000e+00, 0.000000000000000000e+00, 1.000000000000000000e+02
6.800000000000000000e+01, 4.397435999999999694e+03, 4.276922999999999774e+03, 4.196922999999999774e+03, 4.208717999999999847e+03, 4.540512999999999920e+03, 0.000000000000000000e+00, 0.000000000000000000e+00, 1.000000000000000000e+02
6.900000000000000000e+01, 4.401025999999999840e+03, 4.278974000000000160e+03, 4.195896999999999935e+03, 4.223590000000000146e+03, 4.555385000000000218e+03, 0.000000000000000000e+00, 0.000000000000000000e+00, 1.000000000000000000e+02
7.000000000000000000e+01, 4.405127999999999702e+03, 4.285127999999999702e+03, 4.193845999999999549e+03, 4.226667000000000371e+03, 4.551282000000000153e+03, 0.000000000000000000e+00, 0.000000000000000000e+00, 1.000000000000000000e+02
7.100000000000000000e+01, 4.401025999999999840e+03, 4.274872000000000298e+03, 4.188204999999999927e+03, 4.211795000000000073e+03, 4.542051000000000386e+03, 0.000000000000000000e+00, 0.000000000000000000e+00, 1.000000000000000000e+02
7.200000000000000000e+01, 4.375385000000000218e+03, 4.260512999999999920e+03, 4.179487000000000080e+03, 4.197435999999999694e+03, 4.526154000000000451e+03, 0.000000000000000000e+00, 0.000000000000000000e+00, 1.000000000000000000e+02
7.300000000000000000e+01, 4.365127999999999702e+03, 4.274872000000000298e+03, 4.185127999999999702e+03, 4.204614999999999782e+03, 4.523077000000000226e+03, 0.000000000000000000e+00, 0.000000000000000000e+00, 1.000000000000000000e+02
7.400000000000000000e+01, 4.377948999999999614e+03, 4.278974000000000160e+03, 4.186667000000000371e+03, 4.217435999999999694e+03, 4.530769000000000233e+03, 0.000000000000000000e+00, 0.000000000000000000e+00, 1.000000000000000000e+02
7.500000000000000000e+01, 4.381025999999999840e+03, 4.258462000000000444e+03, 4.180000000000000000e+03, 4.215896999999999935e+03, 4.529743999999999687e+03, 0.000000000000000000e+00, 0.000000000000000000e+00, 1.000000000000000000e+02
7.600000000000000000e+01, 4.371795000000000073e+03, 4.266667000000000371e+03, 4.190769000000000233e+03, 4.213332999999999629e+03, 4.520000000000000000e+03, 0.000000000000000000e+00, 0.000000000000000000e+00, 1.000000000000000000e+02
7.700000000000000000e+01, 4.365127999999999702e+03, 4.285127999999999702e+03, 4.206667000000000371e+03, 4.216409999999999854e+03, 4.515896999999999935e+03, 0.000000000000000000e+00, 0.000000000000000000e+00, 1.000000000000000000e+02
7.800000000000000000e+01, 4.372820999999999913e+03, 4.266667000000000371e+03, 4.205127999999999702e+03, 4.216409999999999854e+03, 4.529230999999999767e+03, 0.000000000000000000e+00, 0.000000000000000000e+00, 1.000000000000000000e+02
7.900000000000000000e+01, 4.395896999999999935e+03, 4.258462000000000444e+03, 4.196409999999999854e+03, 4.218462000000000444e+03, 4.543590000000000146e+03, 0.000000000000000000e+00, 0.000000000000000000e+00, 1.000000000000000000e+02
8.000000000000000000e+01, 4.412307999999999993e+03, 4.272820999999999913e+03, 4.196922999999999774e+03, 4.222564000000000306e+03, 4.548717999999999847e+03, 0.000000000000000000e+00, 0.000000000000000000e+00, 1.000000000000000000e+02
8.100000000000000000e+01, 4.415385000000000218e+03, 4.266667000000000371e+03, 4.203590000000000146e+03, 4.220000000000000000e+03, 4.558974000000000160e+03, 0.000000000000000000e+00, 0.000000000000000000e+00, 1.000000000000000000e+02
8.200000000000000000e+01, 4.418974000000000160e+03, 4.264614999999999782e+03, 4.205127999999999702e+03, 4.211795000000000073e+03, 4.564103000000000065e+03, 0.000000000000000000e+00, 0.000000000000000000e+00, 1.000000000000000000e+02
8.300000000000000000e+01, 4.432820999999999913e+03, 4.276922999999999774e+03, 4.207179000000000087e+03, 4.207692000000000007e+03, 4.565127999999999702e+03, 0.000000000000000000e+00, 0.000000000000000000e+00, 1.000000000000000000e+02
8.400000000000000000e+01, 4.445127999999999702e+03, 4.274872000000000298e+03, 4.205640999999999622e+03, 4.215385000000000218e+03, 4.566154000000000451e+03, 0.000000000000000000e+00, 0.000000000000000000e+00, 1.000000000000000000e+02
8.500000000000000000e+01, 4.443077000000000226e+03, 4.281025999999999840e+03, 4.193332999999999629e+03, 4.227692000000000007e+03, 4.561537999999999556e+03, 0.000000000000000000e+00, 0.000000000000000000e+00, 1.000000000000000000e+02
8.600000000000000000e+01, 4.437435999999999694e+03, 4.289230999999999767e+03, 4.186154000000000451e+03, 4.225640999999999622e+03, 4.558974000000000160e+03, 0.000000000000000000e+00, 0.000000000000000000e+00, 1.000000000000000000e+02
8.700000000000000000e+01, 4.430769000000000233e+03, 4.276922999999999774e+03, 4.190769000000000233e+03, 4.213332999999999629e+03, 4.557435999999999694e+03, 0.000000000000000000e+00, 0.000000000000000000e+00, 1.000000000000000000e+02
8.800000000000000000e+01, 4.430769000000000233e+03, 4.268717999999999847e+03, 4.203590000000000146e+03, 4.217435999999999694e+03, 4.553332999999999629e+03, 0.000000000000000000e+00, 0.000000000000000000e+00, 1.000000000000000000e+02
8.900000000000000000e+01, 4.437948999999999614e+03, 4.287179000000000087e+03, 4.214359000000000378e+03, 4.228717999999999847e+03, 4.550256000000000313e+03, 0.000000000000000000e+00, 0.000000000000000000e+00, 1.000000000000000000e+02
9.000000000000000000e+01, 4.436922999999999774e+03, 4.289230999999999767e+03, 4.216409999999999854e+03, 4.221537999999999556e+03, 4.552307999999999993e+03, 0.000000000000000000e+00, 0.000000000000000000e+00, 1.000000000000000000e+02
9.100000000000000000e+01, 4.430769000000000233e+03, 4.274872000000000298e+03, 4.218974000000000160e+03, 4.207179000000000087e+03, 4.551795000000000073e+03, 0.000000000000000000e+00, 0.000000000000000000e+00, 1.000000000000000000e+02
9.200000000000000000e+01, 4.430256000000000313e+03, 4.268717999999999847e+03, 4.218462000000000444e+03, 4.210256000000000313e+03, 4.535896999999999935e+03, 0.000000000000000000e+00, 0.000000000000000000e+00, 1.000000000000000000e+02
9.300000000000000000e+01, 4.433332999999999629e+03, 4.274872000000000298e+03, 4.219487000000000080e+03, 4.221537999999999556e+03, 4.534872000000000298e+03, 0.000000000000000000e+00, 0.000000000000000000e+00, 1.000000000000000000e+02
9.400000000000000000e+01, 4.429230999999999767e+03, 4.278974000000000160e+03, 4.222051000000000386e+03, 4.226667000000000371e+03, 4.549230999999999767e+03, 0.000000000000000000e+00, 0.000000000000000000e+00, 1.000000000000000000e+02
9.500000000000000000e+01, 4.422051000000000386e+03, 4.276922999999999774e+03, 4.217435999999999694e+03, 4.226154000000000451e+03, 4.547179000000000087e+03, 0.000000000000000000e+00, 0.000000000000000000e+00, 1.000000000000000000e+02
9.600000000000000000e+01, 4.421537999999999556e+03, 4.281025999999999840e+03, 4.215385000000000218e+03, 4.215385000000000218e+03, 4.544103000000000065e+03, 0.000000000000000000e+00, 0.000000000000000000e+00, 1.000000000000000000e+02
9.700000000000000000e+01, 4.417948999999999614e+03, 4.276922999999999774e+03, 4.208717999999999847e+03, 4.203077000000000226e+03, 4.544103000000000065e+03, 0.000000000000000000e+00, 0.000000000000000000e+00, 1.000000000000000000e+02
9.800000000000000000e+01, 4.417948999999999614e+03, 4.272820999999999913e+03, 4.202564000000000306e+03, 4.213845999999999549e+03, 4.537948999999999614e+03, 0.000000000000000000e+00, 0.000000000000000000e+00, 1.000000000000000000e+02
9.900000000000000000e+01, 4.428717999999999847e+03, 4.278974000000000160e+03, 4.208204999999999927e+03, 4.236922999999999774e+03, 4.540000000000000000e+03, 0.000000000000000000e+00, 0.000000000000000000e+00, 1.000000000000000000e+02
1.000000000000000000e+02, 4.424614999999999782e+03, 4.272820999999999913e+03, 4.205640999999999622e+03, 4.231282000000000153e+03, 4.533845999999999549e+03, 0.000000000000000000e+00, 0.000000000000000000e+00, 1.000000000000000000e+02
1.010000000000000000e+02, 4.415385000000000218e+03, 4.254359000000000378e+03, 4.195896999999999935e+03, 4.210769000000000233e+03, 4.521025999999999840e+03, 0.000000000000000000e+00, 0.000000000000000000e+00, 1.000000000000000000e+02
1.020000000000000000e+02, 4.423590000000000146e+03, 4.264614999999999782e+03, 4.202051000000000386e+03, 4.216922999999999774e+03, 4.527179000000000087e+03, 1.000000000000000000e+00, 1.000000000000000000e+00, 1.000000000000000000e+02
1.030000000000000000e+02, 4.426154000000000451e+03, 4.281025999999999840e+03, 4.210769000000000233e+03, 4.234359000000000378e+03, 4.543077000000000226e+03, 1.000000000000000000e+00, 1.000000000000000000e+00, 1.000000000000000000e+02
1.040000000000000000e+02, 4.413845999999999549e+03, 4.266667000000000371e+03, 4.203590000000000146e+03, 4.227692000000000007e+03, 4.546667000000000371e+03, 1.000000000000000000e+00, 1.000000000000000000e+00, 1.000000000000000000e+02
1.050000000000000000e+02, 4.407692000000000007e+03, 4.258462000000000444e+03, 4.197435999999999694e+03, 4.210769000000000233e+03, 4.535896999999999935e+03, 1.000000000000000000e+00, 1.000000000000000000e+00, 1.000000000000000000e+02
1.060000000000000000e+02, 4.410769000000000233e+03, 4.270769000000000233e+03, 4.201025999999999840e+03, 4.212307999999999993e+03, 4.531282000000000153e+03, 1.000000000000000000e+00, 1.000000000000000000e+00, 1.000000000000000000e+02
