COUNTER, AF3, T7, Pz, T8, AF4, MARKERS['YES','NO'], TICK, ContactQuality
4.300000000000000000e+01, 4.219487000000000080e+03, 4.219487000000000080e+03, 4.127179000000000087e+03, 4.180000000000000000e+03, 4.220512999999999920e+03, 1.000000000000000000e+00, 1.000000000000000000e+00, 1.000000000000000000e+02
4.400000000000000000e+01, 4.229743999999999687e+03, 4.217435999999999694e+03, 4.124103000000000065e+03, 4.184103000000000065e+03, 4.228204999999999927e+03, 1.000000000000000000e+00, 1.000000000000000000e+00, 1.000000000000000000e+02
4.500000000000000000e+01, 4.226667000000000371e+03, 4.215385000000000218e+03, 4.110769000000000233e+03, 4.175896999999999935e+03, 4.223077000000000226e+03, 1.000000000000000000e+00, 1.000000000000000000e+00, 1.000000000000000000e+02
4.600000000000000000e+01, 4.226154000000000451e+03, 4.221537999999999556e+03, 4.122051000000000386e+03, 4.174872000000000298e+03, 4.221537999999999556e+03, 1.000000000000000000e+00, 1.000000000000000000e+00, 1.000000000000000000e+02
4.700000000000000000e+01, 4.232820999999999913e+03, 4.225640999999999622e+03, 4.141025999999999840e+03, 4.187692000000000007e+03, 4.225640999999999622e+03, 1.000000000000000000e+00, 1.000000000000000000e+00, 1.000000000000000000e+02
4.800000000000000000e+01, 4.223590000000000146e+03, 4.217435999999999694e+03, 4.128204999999999927e+03, 4.186154000000000451e+03, 4.213845999999999549e+03, 1.000000000000000000e+00, 1.000000000000000000e+00, 1.000000000000000000e+02
4.900000000000000000e+01, 4.222564000000000306e+03, 4.213332999999999629e+03, 4.109230999999999767e+03, 4.173845999999999549e+03, 4.211282000000000153e+03, 1.000000000000000000e+00, 1.000000000000000000e+00, 1.000000000000000000e+02
5.000000000000000000e+01, 4.243590000000000146e+03, 4.221537999999999556e+03, 4.115896999999999935e+03, 4.170769000000000233e+03, 4.227692000000000007e+03, 1.000000000000000000e+00, 1.000000000000000000e+00, 1.000000000000000000e+02
5.100000000000000000e+01, 4.248204999999999927e+03, 4.223590000000000146e+03, 4.131282000000000153e+03, 4.178974000000000160e+03, 4.230769000000000233e+03, 1.000000000000000000e+00, 1.000000000000000000e+00, 1.000000000000000000e+02
5.200000000000000000e+01, 4.236922999999999774e+03, 4.215385000000000218e+03, 4.134872000000000298e+03, 4.181537999999999556e+03, 4.223077000000000226e+03, 1.000000000000000000e+00, 1.000000000000000000e+00, 1.000000000000000000e+02
5.300000000000000000e+01, 4.231282000000000153e+03, 4.211282000000000153e+03, 4.126667000000000371e+03, 4.171282000000000153e+03, 4.218974000000000160e+03, 1.000000000000000000e+00, 1.000000000000000000e+00, 1.000000000000000000e+02
5.400000000000000000e+01, 4.229743999999999687e+03, 4.215385000000000218e+03, 4.116409999999999854e+03, 4.169230999999999767e+03, 4.217435999999999694e+03, 1.000000000000000000e+00, 1.000000000000000000e+00, 1.000000000000000000e+02
5.500000000000000000e+01, 4.233845999999999549e+03, 4.219487000000000080e+03, 4.118974000000000160e+03, 4.183590000000000146e+03, 4.222564000000000306e+03, 1.000000000000000000e+00, 1.000000000000000000e+00, 1.000000000000000000e+02
5.600000000000000000e+01, 4.238974000000000160e+03, 4.213332999999999629e+03, 4.131282000000000153e+03, 4.189230999999999767e+03, 4.228204999999999927e+03, 1.000000000000000000e+00, 1.000000000000000000e+00, 1.000000000000000000e+02
5.700000000000000000e+01, 4.238974000000000160e+03, 4.213332999999999629e+03, 4.142564000000000306e+03, 4.181025999999999840e+03, 4.221537999999999556e+03, 1.000000000000000000e+00, 1.000000000000000000e+00, 1.000000000000000000e+02
5.800000000000000000e+01, 4.235385000000000218e+03, 4.225640999999999622e+03, 4.145640999999999622e+03, 4.178462000000000444e+03, 4.211795000000000073e+03, 1.000000000000000000e+00, 1.000000000000000000e+00, 1.000000000000000000e+02
5.900000000000000000e+01, 4.230256000000000313e+03, 4.225640999999999622e+03, 4.142564000000000306e+03, 4.178974000000000160e+03, 4.212307999999999993e+03, 1.000000000000000000e+00, 1.000000000000000000e+00, 1.000000000000000000e+02
6.000000000000000000e+01, 4.221537999999999556e+03, 4.211282000000000153e+03, 4.139487000000000080e+03, 4.170769000000000233e+03, 4.205127999999999702e+03, 1.000000000000000000e+00, 1.000000000000000000e+00, 1.000000000000000000e+02
6.100000000000000000e+01, 4.220512999999999920e+03, 4.211282000000000153e+03, 4.137948999999999614e+03, 4.165127999999999702e+03, 4.195385000000000218e+03, 1.000000000000000000e+00, 1.000000000000000000e+00, 1.000000000000000000e+02
6.200000000000000000e+01, 4.224614999999999782e+03, 4.219487000000000080e+03, 4.141025999999999840e+03, 4.170769000000000233e+03, 4.204103000000000065e+03, 1.000000000000000000e+00, 1.000000000000000000e+00, 1.000000000000000000e+02
6.300000000000000000e+01, 4.207179000000000087e+03, 4.219487000000000080e+03, 4.135385000000000218e+03, 4.173332999999999629e+03, 4.208204999999999927e+03, 1.000000000000000000e+00, 1.000000000000000000e+00, 1.000000000000000000e+02
6.400000000000000000e+01, 4.181537999999999556e+03, 4.215385000000000218e+03, 4.114872000000000298e+03, 4.168717999999999847e+03, 4.191795000000000073e+03, 1.000000000000000000e+00, 1.000000000000000000e+00, 1.000000000000000000e+02
6.500000000000000000e+01, 4.184103000000000065e+03, 4.217435999999999694e+03, 4.108717999999999847e+03, 4.166667000000000371e+03, 4.190256000000000313e+03, 1.000000000000000000e+00, 1.000000000000000000e+00, 1.000000000000000000e+02
6.600000000000000000e+01, 4.190769000000000233e+03, 4.217435999999999694e+03, 4.120000000000000000e+03, 4.168204999999999927e+03, 4.204103000000000065e+03, 1.000000000000000000e+00, 1.000000000000000000e+00, 1.000000000000000000e+02
6.700000000000000000e+01, 4.170769000000000233e+03, 4.217435999999999694e+03, 4.122051000000000386e+03, 4.169230999999999767e+03, 4.202564000000000306e+03, 1.000000000000000000e+00, 1.000000000000000000e+00, 1.000000000000000000e+02
6.800000000000000000e+01, 4.156922999999999774e+03, 4.225640999999999622e+03, 4.118974000000000160e+03, 4.169230999999999767e+03, 4.194359000000000378e+03, 1.000000000000000000e+00, 1.000000000000000000e+00, 1.000000000000000000e+02
6.900000000000000000e+01, 4.169230999999999767e+03, 4.231795000000000073e+03, 4.134872000000000298e+03, 4.176922999999999774e+03, 4.204614999999999782e+03, 1.000000000000000000e+00, 1.000000000000000000e+00, 1.000000000000000000e+02
7.000000000000000000e+01, 4.170769000000000233e+03, 4.231795000000000073e+03, 4.153845999999999549e+03, 4.187179000000000087e+03, 4.214872000000000298e+03, 1.000000000000000000e+00, 1.000000000000000000e+00, 1.000000000000000000e+02
7.100000000000000000e+01, 4.155385000000000218e+03, 4.231795000000000073e+03, 4.153332999999999629e+03, 4.183077000000000226e+03, 4.206154000000000451e+03, 1.000000000000000000e+00, 1.000000000000000000e+00, 1.000000000000000000e+02
7.200000000000000000e+01, 4.151795000000000073e+03, 4.231795000000000073e+03, 4.145640999999999622e+03, 4.171795000000000073e+03, 4.204103000000000065e+03, 1.000000000000000000e+00, 1.000000000000000000e+00, 1.000000000000000000e+02
7.300000000000000000e+01, 4.147179000000000087e+03, 4.233845999999999549e+03, 4.141537999999999556e+03, 4.170256000000000313e+03, 4.207179000000000087e+03, 1.000000000000000000e+00, 1.000000000000000000e+00, 1.000000000000000000e+02
7.400000000000000000e+01, 4.128204999999999927e+03, 4.229743999999999687e+03, 4.136922999999999774e+03, 4.169230999999999767e+03, 4.195896999999999935e+03, 1.000000000000000000e+00, 1.000000000000000000e+00, 1.000000000000000000e+02
7.500000000000000000e+01, 4.122051000000000386e+03, 4.219487000000000080e+03, 4.135385000000000218e+03, 4.169230999999999767e+03, 4.187179000000000087e+03, 1.000000000000000000e+00, 1.000000000000000000e+00, 1.000000000000000000e+02
7.600000000000000000e+01, 4.114359000000000378e+03, 4.219487000000000080e+03, 4.127179000000000087e+03, 4.169230999999999767e+03, 4.184103000000000065e+03, 1.000000000000000000e+00, 1.000000000000000000e+00, 1.000000000000000000e+02
7.700000000000000000e+01, 4.092307999999999993e+03, 4.223590000000000146e+03, 4.108204999999999927e+03, 4.163077000000000226e+03, 4.173332999999999629e+03, 1.000000000000000000e+00, 1.000000000000000000e+00, 1.000000000000000000e+02
7.800000000000000000e+01, 4.088717999999999847e+03, 4.217435999999999694e+03, 4.103590000000000146e+03, 4.159487000000000080e+03, 4.162051000000000386e+03, 1.000000000000000000e+00, 1.000000000000000000e+00, 1.000000000000000000e+02
7.900000000000000000e+01, 4.101537999999999556e+03, 4.211282000000000153e+03, 4.118462000000000444e+03, 4.167179000000000087e+03, 4.157435999999999694e+03, 1.000000000000000000e+00, 1.000000000000000000e+00, 1.000000000000000000e+02
8.000000000000000000e+01, 4.104103000000000065e+03, 4.215385000000000218e+03, 4.131795000000000073e+03, 4.172820999999999913e+03, 4.155896999999999935e+03, 1.000000000000000000e+00, 1.000000000000000000e+00, 1.000000000000000000e+02
8.100000000000000000e+01, 4.099487000000000080e+03, 4.217435999999999694e+03, 4.147179000000000087e+03, 4.171282000000000153e+03, 4.151282000000000153e+03, 1.000000000000000000e+00, 1.000000000000000000e+00, 1.000000000000000000e+02
8.200000000000000000e+01, 4.098462000000000444e+03, 4.215385000000000218e+03, 4.164103000000000065e+03, 4.171795000000000073e+03, 4.148717999999999847e+03, 1.000000000000000000e+00, 1.000000000000000000e+00, 1.000000000000000000e+02
8.300000000000000000e+01, 4.096922999999999774e+03, 4.217435999999999694e+03, 4.159487000000000080e+03, 4.173845999999999549e+03, 4.149230999999999767e+03, 1.000000000000000000e+00, 1.000000000000000000e+00, 1.000000000000000000e+02
8.400000000000000000e+01, 4.092820999999999913e+03, 4.215385000000000218e+03, 4.136409999999999854e+03, 4.170256000000000313e+03, 4.145640999999999622e+03, 1.000000000000000000e+00, 1.000000000000000000e+00, 1.000000000000000000e+02
8.500000000000000000e+01, 4.099487000000000080e+03, 4.207179000000000087e+03, 4.124614999999999782e+03, 4.167179000000000087e+03, 4.145127999999999702e+03, 1.000000000000000000e+00, 1.000000000000000000e+00, 1.000000000000000000e+02
8.600000000000000000e+01, 4.103077000000000226e+03, 4.201025999999999840e+03, 4.131282000000000153e+03, 4.167179000000000087e+03, 4.151282000000000153e+03, 1.000000000000000000e+00, 1.000000000000000000e+00, 1.000000000000000000e+02
8.700000000000000000e+01, 4.090255999999999858e+03, 4.203077000000000226e+03, 4.135385000000000218e+03, 4.170256000000000313e+03, 4.155896999999999935e+03, 1.000000000000000000e+00, 1.000000000000000000e+00, 1.000000000000000000e+02
8.800000000000000000e+01, 4.081538000000000011e+03, 4.205127999999999702e+03, 4.122564000000000306e+03, 4.173332999999999629e+03, 4.149743999999999687e+03, 1.000000000000000000e+00, 1.000000000000000000e+00, 1.000000000000000000e+02
8.900000000000000000e+01, 4.078461999999999989e+03, 4.205127999999999702e+03, 4.108717999999999847e+03, 4.163077000000000226e+03, 4.131282000000000153e+03, 1.000000000000000000e+00, 1.000000000000000000e+00, 1.000000000000000000e+02
9.000000000000000000e+01, 4.072307999999999993e+03, 4.203077000000000226e+03, 4.112820999999999913e+03, 4.148717999999999847e+03, 4.118974000000000160e+03, 1.000000000000000000e+00, 1.000000000000000000e+00, 1.000000000000000000e+02
9.100000000000000000e+01, 4.067692000000000007e+03, 4.194872000000000298e+03, 4.133332999999999629e+03, 4.152820999999999913e+03, 4.117948999999999614e+03, 1.000000000000000000e+00, 1.000000000000000000e+00, 1.000000000000000000e+02
9.200000000000000000e+01, 4.056922999999999774e+03, 4.192820999999999913e+03, 4.150256000000000313e+03, 4.157948999999999614e+03, 4.104103000000000065e+03, 1.000000000000000000e+00, 1.000000000000000000e+00, 1.000000000000000000e+02
9.300000000000000000e+01, 4.045641000000000076e+03, 4.194872000000000298e+03, 4.154872000000000298e+03, 4.154359000000000378e+03, 4.085128000000000156e+03, 1.000000000000000000e+00, 1.000000000000000000e+00, 1.000000000000000000e+02
9.400000000000000000e+01, 4.052307999999999993e+03, 4.198974000000000160e+03, 4.154359000000000378e+03, 4.160512999999999920e+03, 4.086153999999999996e+03, 1.000000000000000000e+00, 1.000000000000000000e+00, 1.000000000000000000e+02
9.500000000000000000e+01, 4.056922999999999774e+03, 4.194872000000000298e+03, 4.147692000000000007e+03, 4.167179000000000087e+03, 4.095896999999999935e+03, 1.000000000000000000e+00, 1.000000000000000000e+00, 1.000000000000000000e+02
9.600000000000000000e+01, 4.045641000000000076e+03, 4.184614999999999782e+03, 4.138974000000000160e+03, 4.164103000000000065e+03, 4.093333000000000084e+03, 1.000000000000000000e+00, 1.000000000000000000e+00, 1.000000000000000000e+02
9.700000000000000000e+01, 4.046153999999999996e+03, 4.186667000000000371e+03, 4.136922999999999774e+03, 4.163077000000000226e+03, 4.087692000000000007e+03, 1.000000000000000000e+00, 1.000000000000000000e+00, 1.000000000000000000e+02
9.800000000000000000e+01, 4.052307999999999993e+03, 4.182564000000000306e+03, 4.133845999999999549e+03, 4.161025999999999840e+03, 4.076922999999999774e+03, 1.000000000000000000e+00, 1.000000000000000000e+00, 1.000000000000000000e+02
9.900000000000000000e+01, 4.040512999999999920e+03, 4.176409999999999854e+03, 4.122051000000000386e+03, 4.158462000000000444e+03, 4.065641000000000076e+03, 1.000000000000000000e+00, 1.000000000000000000e+00, 1.000000000000000000e+02
1.000000000000000000e+02, 4.035385000000000218e+03, 4.180512999999999920e+03, 4.118462000000000444e+03, 4.166667000000000371e+03, 4.075385000000000218e+03, 1.000000000000000000e+00, 1.000000000000000000e+00, 1.000000000000000000e+02
1.010000000000000000e+02, 4.046153999999999996e+03, 4.188717999999999847e+03, 4.126667000000000371e+03, 4.176409999999999854e+03, 4.083077000000000226e+03, 1.000000000000000000e+00, 1.000000000000000000e+00, 1.000000000000000000e+02
1.020000000000000000e+02, 4.042563999999999851e+03, 4.184614999999999782e+03, 4.132820999999999913e+03, 4.174359000000000378e+03, 4.064614999999999782e+03, 1.000000000000000000e+00, 1.000000000000000000e+00, 1.000000000000000000e+02
1.030000000000000000e+02, 4.016922999999999774e+03, 4.172307999999999993e+03, 4.138974000000000160e+03, 4.171795000000000073e+03, 4.047179000000000087e+03, 1.000000000000000000e+00, 1.000000000000000000e+00, 1.000000000000000000e+02
1.040000000000000000e+02, 3.996922999999999774e+03, 4.168204999999999927e+03, 4.140512999999999920e+03, 4.168717999999999847e+03, 4.043590000000000146e+03, 1.000000000000000000e+00, 1.000000000000000000e+00, 1.000000000000000000e+02
1.050000000000000000e+02, 4.000512999999999920e+03, 4.164103000000000065e+03, 4.137435999999999694e+03, 4.167692000000000007e+03, 4.038461999999999989e+03, 1.000000000000000000e+00, 1.000000000000000000e+00, 1.000000000000000000e+02
1.060000000000000000e+02, 4.014871999999999844e+03, 4.153845999999999549e+03, 4.145127999999999702e+03, 4.171282000000000153e+03, 4.034358999999999924e+03, 1.000000000000000000e+00, 1.000000000000000000e+00, 1.000000000000000000e+02
1.070000000000000000e+02, 4.029231000000000222e+03, 4.160000000000000000e+03, 4.158974000000000160e+03, 4.174359000000000378e+03, 4.041025999999999840e+03, 1.000000000000000000e+00, 1.000000000000000000e+00, 1.000000000000000000e+02
1.080000000000000000e+02, 4.035385000000000218e+03, 4.172307999999999993e+03, 4.155896999999999935e+03, 4.174872000000000298e+03, 4.042050999999999931e+03, 1.000000000000000000e+00, 1.000000000000000000e+00, 1.000000000000000000e+02
1.090000000000000000e+02, 4.038974000000000160e+03, 4.174359000000000378e+03, 4.145127999999999702e+03, 4.172820999999999913e+03, 4.037436000000000149e+03, 1.000000000000000000e+00, 1.000000000000000000e+00, 1.000000000000000000e+02
1.100000000000000000e+02, 4.052820999999999913e+03, 4.170256000000000313e+03, 4.143590000000000146e+03, 4.171795000000000073e+03, 4.045128000000000156e+03, 1.000000000000000000e+00, 1.000000000000000000e+00, 1.000000000000000000e+02
1.110000000000000000e+02, 4.058461999999999989e+03, 4.170256000000000313e+03, 4.141025999999999840e+03, 4.168717999999999847e+03, 4.050255999999999858e+03, 1.000000000000000000e+00, 1.000000000000000000e+00, 1.000000000000000000e+02
1.120000000000000000e+02, 4.046666999999999916e+03, 4.166154000000000451e+03, 4.135896999999999935e+03, 4.166154000000000451e+03, 4.045128000000000156e+03, 1.000000000000000000e+00, 1.000000000000000000e+00, 1.000000000000000000e+02
1.130000000000000000e+02, 4.045641000000000076e+03, 4.164103000000000065e+03, 4.138462000000000444e+03, 4.171282000000000153e+03, 4.047692000000000007e+03, 1.000000000000000000e+00, 1.000000000000000000e+00, 1.000000000000000000e+02
1.140000000000000000e+02, 4.049744000000000142e+03, 4.162051000000000386e+03, 4.145127999999999702e+03, 4.172820999999999913e+03, 4.047179000000000087e+03, 1.000000000000000000e+00, 1.000000000000000000e+00, 1.000000000000000000e+02
1.150000000000000000e+02, 4.029231000000000222e+03, 4.155896999999999935e+03, 4.150256000000000313e+03, 4.167692000000000007e+03, 4.026666999999999916e+03, 1.000000000000000000e+00, 1.000000000000000000e+00, 1.000000000000000000e+02
1.160000000000000000e+02, 4.005641000000000076e+03, 4.153845999999999549e+03, 4.155385000000000218e+03, 4.173332999999999629e+03, 4.008204999999999927e+03, 1.000000000000000000e+00, 1.000000000000000000e+00, 1.000000000000000000e+02
1.170000000000000000e+02, 4.000000000000000000e+03, 4.153845999999999549e+03, 4.156409999999999854e+03, 4.185640999999999622e+03, 4.000512999999999920e+03, 1.000000000000000000e+00, 1.000000000000000000e+00, 1.000000000000000000e+02
1.180000000000000000e+02, 4.000000000000000000e+03, 4.151795000000000073e+03, 4.157948999999999614e+03, 4.182051000000000386e+03, 3.997436000000000149e+03, 1.000000000000000000e+00, 1.000000000000000000e+00, 1.000000000000000000e+02
1.190000000000000000e+02, 3.995385000000000218e+03, 4.143590000000000146e+03, 4.155896999999999935e+03, 4.170256000000000313e+03, 3.985641000000000076e+03, 1.000000000000000000e+00, 1.000000000000000000e+00, 1.000000000000000000e+02
1.200000000000000000e+02, 3.990768999999999778e+03, 4.133332999999999629e+03, 4.141025999999999840e+03, 4.170256000000000313e+03, 3.963590000000000146e+03, 1.000000000000000000e+00, 1.000000000000000000e+00, 1.000000000000000000e+02
1.210000000000000000e+02, 3.990768999999999778e+03, 4.127179000000000087e+03, 4.135385000000000218e+03, 4.173332999999999629e+03, 3.953846000000000004e+03, 1.000000000000000000e+00, 1.000000000000000000e+00, 1.000000000000000000e+02
1.220000000000000000e+02, 3.987692000000000007e+03, 4.121025999999999840e+03, 4.141025999999999840e+03, 4.165127999999999702e+03, 3.951282000000000153e+03, 1.000000000000000000e+00, 1.000000000000000000e+00, 1.000000000000000000e+02
1.230000000000000000e+02, 3.980512999999999920e+03, 4.118974000000000160e+03, 4.130769000000000233e+03, 4.154872000000000298e+03, 3.944103000000000065e+03, 1.000000000000000000e+00, 1.000000000000000000e+00, 1.000000000000000000e+02
1.240000000000000000e+02, 3.973846000000000004e+03, 4.125127999999999702e+03, 4.118974000000000160e+03, 4.150256000000000313e+03, 3.938461999999999989e+03, 1.000000000000000000e+00, 1.000000000000000000e+00, 1.000000000000000000e+02
1.250000000000000000e+02, 3.968204999999999927e+03, 4.131282000000000153e+03, 4.131282000000000153e+03, 4.150769000000000233e+03, 3.933846000000000004e+03, 1.000000000000000000e+00, 1.000000000000000000e+00, 1.000000000000000000e+02
1.260000000000000000e+02, 3.967179000000000087e+03, 4.129230999999999767e+03, 4.144103000000000065e+03, 4.158974000000000160e+03, 3.930768999999999778e+03, 1.000000000000000000e+00, 1.000000000000000000e+00, 1.000000000000000000e+02
1.270000000000000000e+02, 3.967692000000000007e+03, 4.125127999999999702e+03, 4.139487000000000080e+03, 4.171282000000000153e+03, 3.932820999999999913e+03, 1.000000000000000000e+00, 1.000000000000000000e+00, 1.000000000000000000e+02
0.000000000000000000e+00, 3.967692000000000007e+03, 4.123077000000000226e+03, 4.139487000000000080e+03, 4.173845999999999549e+03, 3.943590000000000146e+03, 1.000000000000000000e+00, 1.000000000000000000e+00, 1.000000000000000000e+02
1.000000000000000000e+00, 3.967692000000000007e+03, 4.127179000000000087e+03, 4.147179000000000087e+03, 4.170769000000000233e+03, 3.953333000000000084e+03, 1.000000000000000000e+00, 1.000000000000000000e+00, 1.000000000000000000e+02
2.000000000000000000e+00, 3.965641000000000076e+03, 4.123077000000000226e+03, 4.142051000000000386e+03, 4.174359000000000378e+03, 3.949744000000000142e+03, 1.000000000000000000e+00, 1.000000000000000000e+00, 1.000000000000000000e+02
3.000000000000000000e+00, 3.962050999999999931e+03, 4.110769000000000233e+03, 4.137435999999999694e+03, 4.175385000000000218e+03, 3.936409999999999854e+03, 1.000000000000000000e+00, 1.000000000000000000e+00, 1.000000000000000000e+02
4.000000000000000000e+00, 3.962563999999999851e+03, 4.114872000000000298e+03, 4.144614999999999782e+03, 4.171795000000000073e+03, 3.930255999999999858e+03, 1.000000000000000000e+00, 1.000000000000000000e+00, 1.000000000000000000e+02
5.000000000000000000e+00, 3.962563999999999851e+03, 4.118974000000000160e+03, 4.144614999999999782e+03, 4.172307999999999993e+03, 3.929744000000000142e+03, 1.000000000000000000e+00, 1.000000000000000000e+00, 1.000000000000000000e+02
6.000000000000000000e+00, 3.953846000000000004e+03, 4.100512999999999920e+03, 4.138462000000000444e+03, 4.171795000000000073e+03, 3.915385000000000218e+03, 1.000000000000000000e+00, 1.000000000000000000e+00, 1.000000000000000000e+02
7.000000000000000000e+00, 3.942050999999999931e+03, 4.090255999999999858e+03, 4.140512999999999920e+03, 4.167179000000000087e+03, 3.895385000000000218e+03, 1.000000000000000000e+00, 1.000000000000000000e+00, 1.000000000000000000e+02
8.000000000000000000e+00, 3.929744000000000142e+03, 4.096409999999999854e+03, 4.137435999999999694e+03, 4.158462000000000444e+03, 3.883077000000000226e+03, 1.000000000000000000e+00, 1.000000000000000000e+00, 1.000000000000000000e+02
9.000000000000000000e+00, 3.911795000000000073e+03, 4.092307999999999993e+03, 4.126154000000000451e+03, 4.152820999999999913e+03, 3.873846000000000004e+03, 1.000000000000000000e+00, 1.000000000000000000e+00, 1.000000000000000000e+02
1.000000000000000000e+01, 3.903590000000000146e+03, 4.086153999999999996e+03, 4.134359000000000378e+03, 4.160000000000000000e+03, 3.877436000000000149e+03, 1.000000000000000000e+00, 1.000000000000000000e+00, 1.000000000000000000e+02
1.100000000000000000e+01, 3.899487000000000080e+03, 4.092307999999999993e+03, 4.149230999999999767e+03, 4.171795000000000073e+03, 3.880512999999999920e+03, 1.000000000000000000e+00, 1.000000000000000000e+00, 1.000000000000000000e+02
1.200000000000000000e+01, 3.887179000000000087e+03, 4.092307999999999993e+03, 4.144614999999999782e+03, 4.169230999999999767e+03, 3.874871999999999844e+03, 1.000000000000000000e+00, 1.000000000000000000e+00, 1.000000000000000000e+02
1.300000000000000000e+01, 3.876922999999999774e+03, 4.086153999999999996e+03, 4.135385000000000218e+03, 4.157948999999999614e+03, 3.874871999999999844e+03, 1.000000000000000000e+00, 1.000000000000000000e+00, 1.000000000000000000e+02
1.400000000000000000e+01, 3.876409999999999854e+03, 4.096409999999999854e+03, 4.135896999999999935e+03, 4.152820999999999913e+03, 3.877436000000000149e+03, 1.000000000000000000e+00, 1.000000000000000000e+00, 1.000000000000000000e+02
1.500000000000000000e+01, 3.877436000000000149e+03, 4.108717999999999847e+03, 4.138462000000000444e+03, 4.156409999999999854e+03, 3.878461999999999989e+03, 1.000000000000000000e+00, 1.000000000000000000e+00, 1.000000000000000000e+02
1.600000000000000000e+01, 3.870255999999999858e+03, 4.106667000000000371e+03, 4.137435999999999694e+03, 4.159487000000000080e+03, 3.880000000000000000e+03, 1.000000000000000000e+00, 1.000000000000000000e+00, 1.000000000000000000e+02
1.700000000000000000e+01, 3.855385000000000218e+03, 4.100512999999999920e+03, 4.134872000000000298e+03, 4.155896999999999935e+03, 3.877949000000000069e+03, 1.000000000000000000e+00, 1.000000000000000000e+00, 1.000000000000000000e+02
1.800000000000000000e+01, 3.844103000000000065e+03, 4.098462000000000444e+03, 4.133845999999999549e+03, 4.152820999999999913e+03, 3.875896999999999935e+03, 1.000000000000000000e+00, 1.000000000000000000e+00, 1.000000000000000000e+02
1.900000000000000000e+01, 3.844614999999999782e+03, 4.096409999999999854e+03, 4.136409999999999854e+03, 4.156922999999999774e+03, 3.873846000000000004e+03, 1.000000000000000000e+00, 1.000000000000000000e+00, 1.000000000000000000e+02
2.000000000000000000e+01, 3.845641000000000076e+03, 4.092307999999999993e+03, 4.140512999999999920e+03, 4.157948999999999614e+03, 3.868204999999999927e+03, 1.000000000000000000e+00, 1.000000000000000000e+00, 1.000000000000000000e+02
2.100000000000000000e+01, 3.839487000000000080e+03, 4.096409999999999854e+03, 4.137435999999999694e+03, 4.153332999999999629e+03, 3.865641000000000076e+03, 1.000000000000000000e+00, 1.000000000000000000e+00, 1.000000000000000000e+02
2.200000000000000000e+01, 3.827179000000000087e+03, 4.102564000000000306e+03, 4.129230999999999767e+03, 4.152820999999999913e+03, 3.859487000000000080e+03, 1.000000000000000000e+00, 1.000000000000000000e+00, 1.000000000000000000e+02
2.300000000000000000e+01, 3.813333000000000084e+03, 4.102564000000000306e+03, 4.119487000000000080e+03, 4.152307999999999993e+03, 3.844614999999999782e+03, 1.000000000000000000e+00, 1.000000000000000000e+00, 1.000000000000000000e+02
2.400000000000000000e+01, 3.810255999999999858e+03, 4.098462000000000444e+03, 4.116409999999999854e+03, 4.153845999999999549e+03, 3.844103000000000065e+03, 1.000000000000000000e+00, 1.000000000000000000e+00, 1.000000000000000000e+02
2.500000000000000000e+01, 3.820512999999999920e+03, 4.102564000000000306e+03, 4.127179000000000087e+03, 4.159487000000000080e+03, 3.863077000000000226e+03, 1.000000000000000000e+00, 1.000000000000000000e+00, 1.000000000000000000e+02
2.600000000000000000e+01, 3.827692000000000007e+03, 4.108717999999999847e+03, 4.138974000000000160e+03, 4.162051000000000386e+03, 3.869744000000000142e+03, 1.000000000000000000e+00, 1.000000000000000000e+00, 1.000000000000000000e+02
2.700000000000000000e+01, 3.826666999999999916e+03, 4.102564000000000306e+03, 4.136409999999999854e+03, 4.162051000000000386e+03, 3.860000000000000000e+03, 1.000000000000000000e+00, 1.000000000000000000e+00, 1.000000000000000000e+02
2.800000000000000000e+01, 3.830255999999999858e+03, 4.102564000000000306e+03, 4.134872000000000298e+03, 4.163590000000000146e+03, 3.863077000000000226e+03, 1.000000000000000000e+00, 1.000000000000000000e+00, 1.000000000000000000e+02
2.900000000000000000e+01, 3.834871999999999844e+03, 4.116922999999999774e+03, 4.143077000000000226e+03, 4.165127999999999702e+03, 3.867692000000000007e+03, 1.000000000000000000e+00, 1.000000000000000000e+00, 1.000000000000000000e+02
3.000000000000000000e+01, 3.830768999999999778e+03, 4.108717999999999847e+03, 4.138462000000000444e+03, 4.160512999999999920e+03, 3.850255999999999858e+03, 1.000000000000000000e+00, 1.000000000000000000e+00, 1.000000000000000000e+02
3.100000000000000000e+01, 3.826153999999999996e+03, 4.100512999999999920e+03, 4.130769000000000233e+03, 4.160512999999999920e+03, 3.840512999999999920e+03, 1.000000000000000000e+00, 1.000000000000000000e+00, 1.000000000000000000e+02
3.200000000000000000e+01, 3.829231000000000222e+03, 4.114872000000000298e+03, 4.137948999999999614e+03, 4.165640999999999622e+03, 3.852307999999999993e+03, 1.000000000000000000e+00, 1.000000000000000000e+00, 1.000000000000000000e+02
3.300000000000000000e+01, 3.832307999999999993e+03, 4.118974000000000160e+03, 4.136922999999999774e+03, 4.167179000000000087e+03, 3.860000000000000000e+03, 1.000000000000000000e+00, 1.000000000000000000e+00, 1.000000000000000000e+02
3.400000000000000000e+01, 3.829744000000000142e+03, 4.102564000000000306e+03, 4.122564000000000306e+03, 4.165127999999999702e+03, 3.852820999999999913e+03, 1.000000000000000000e+00, 1.000000000000000000e+00, 1.000000000000000000e+02
3.500000000000000000e+01, 3.837949000000000069e+03, 4.098462000000000444e+03, 4.115385000000000218e+03, 4.165640999999999622e+03, 3.846666999999999916e+03, 1.000000000000000000e+00, 1.000000000000000000e+00, 1.000000000000000000e+02
3.600000000000000000e+01, 3.852307999999999993e+03, 4.104614999999999782e+03, 4.119487000000000080e+03, 4.172307999999999993e+03, 3.855385000000000218e+03, 1.000000000000000000e+00, 1.000000000000000000e+00, 1.000000000000000000e+02
3.700000000000000000e+01, 3.848717999999999847e+03, 4.108717999999999847e+03, 4.130769000000000233e+03, 4.170256000000000313e+03, 3.864103000000000065e+03, 1.000000000000000000e+00, 1.000000000000000000e+00, 1.000000000000000000e+02
3.800000000000000000e+01, 3.838974000000000160e+03, 4.106667000000000371e+03, 4.142564000000000306e+03, 4.167179000000000087e+03, 3.857949000000000069e+03, 1.000000000000000000e+00, 1.000000000000000000e+00, 1.000000000000000000e+02
3.900000000000000000e+01, 3.841025999999999840e+03, 4.106667000000000371e+03, 4.141025999999999840e+03, 4.168204999999999927e+03, 3.849744000000000142e+03, 1.000000000000000000e+00, 1.000000000000000000e+00, 1.000000000000000000e+02
4.000000000000000000e+01, 3.846153999999999996e+03, 4.116922999999999774e+03, 4.136409999999999854e+03, 4.168204999999999927e+03, 3.861538000000000011e+03, 1.000000000000000000e+00, 1.000000000000000000e+00, 1.000000000000000000e+02
4.100000000000000000e+01, 3.842050999999999931e+03, 4.125127999999999702e+03, 4.141537999999999556e+03, 4.170256000000000313e+03, 3.872307999999999993e+03, 1.000000000000000000e+00, 1.000000000000000000e+00, 1.000000000000000000e+02
4.200000000000000000e+01, 3.833846000000000004e+03, 4.110769000000000233e+03, 4.137948999999999614e+03, 4.166154000000000451e+03, 3.857949000000000069e+03, 1.000000000000000000e+00, 1.000000000000000000e+00, 1.000000000000000000e+02
4.300000000000000000e+01, 3.837436000000000149e+03, 4.106667000000000371e+03, 4.126667000000000371e+03, 4.156409999999999854e+03, 3.845641000000000076e+03, 1.000000000000000000e+00, 1.000000000000000000e+00, 1.000000000000000000e+02
4.400000000000000000e+01, 3.840512999999999920e+03, 4.116922999999999774e+03, 4.129743999999999687e+03, 4.155385000000000218e+03, 3.845128000000000156e+03, 1.000000000000000000e+00, 1.000000000000000000e+00, 1.000000000000000000e+02
4.500000000000000000e+01, 3.829744000000000142e+03, 4.116922999999999774e+03, 4.139487000000000080e+03, 4.161025999999999840e+03, 3.847179000000000087e+03, 1.000000000000000000e+00, 1.000000000000000000e+00, 1.000000000000000000e+02
4.600000000000000000e+01, 3.830768999999999778e+03, 4.108717999999999847e+03, 4.133845999999999549e+03, 4.156922999999999774e+03, 3.848717999999999847e+03, 1.000000000000000000e+00, 1.000000000000000000e+00, 1.000000000000000000e+02
4.700000000000000000e+01, 3.832820999999999913e+03, 4.104614999999999782e+03, 4.116409999999999854e+03, 4.152820999999999913e+03, 3.844103000000000065e+03, 1.000000000000000000e+00, 1.000000000000000000e+00, 1.000000000000000000e+02
4.800000000000000000e+01, 3.813846000000000004e+03, 4.098462000000000444e+03, 4.107179000000000087e+03, 4.151282000000000153e+03, 3.834871999999999844e+03, 1.000000000000000000e+00, 1.000000000000000000e+00, 1.000000000000000000e+02
4.900000000000000000e+01, 3.802563999999999851e+03, 4.098462000000000444e+03, 4.107179000000000087e+03, 4.143077000000000226e+03, 3.823590000000000146e+03, 1.000000000000000000e+00, 1.000000000000000000e+00, 1.000000000000000000e+02
5.000000000000000000e+01, 3.807179000000000087e+03, 4.112820999999999913e+03, 4.107692000000000007e+03, 4.141025999999999840e+03, 3.813846000000000004e+03, 1.000000000000000000e+00, 1.000000000000000000e+00, 1.000000000000000000e+02
5.100000000000000000e+01, 3.804103000000000065e+03, 4.112820999999999913e+03, 4.105640999999999622e+03, 4.147692000000000007e+03, 3.813846000000000004e+03, 1.000000000000000000e+00, 1.000000000000000000e+00, 1.000000000000000000e+02
5.200000000000000000e+01, 3.798461999999999989e+03, 4.100512999999999920e+03, 4.104103000000000065e+03, 4.142051000000000386e+03, 3.808717999999999847e+03, 1.000000000000000000e+00, 1.000000000000000000e+00, 1.000000000000000000e+02
5.300000000000000000e+01, 3.797949000000000069e+03, 4.106667000000000371e+03, 4.106154000000000451e+03, 4.133845999999999549e+03, 3.801025999999999840e+03, 1.000000000000000000e+00, 1.000000000000000000e+00, 1.000000000000000000e+02
5.400000000000000000e+01, 3.791795000000000073e+03, 4.114872000000000298e+03, 4.108717999999999847e+03, 4.137435999999999694e+03, 3.805641000000000076e+03, 1.000000000000000000e+00, 1.000000000000000000e+00, 1.000000000000000000e+02
5.500000000000000000e+01, 3.790255999999999858e+03, 4.112820999999999913e+03, 4.104614999999999782e+03, 4.136409999999999854e+03, 3.806666999999999916e+03, 1.000000000000000000e+00, 1.000000000000000000e+00, 1.000000000000000000e+02
5.600000000000000000e+01, 3.797949000000000069e+03, 4.110769000000000233e+03, 4.097948999999999614e+03, 4.132820999999999913e+03, 3.804103000000000065e+03, 1.000000000000000000e+00, 1.000000000000000000e+00, 1.000000000000000000e+02
5.700000000000000000e+01, 3.800512999999999920e+03, 4.110769000000000233e+03, 4.099487000000000080e+03, 4.137948999999999614e+03, 3.814358999999999924e+03, 1.000000000000000000e+00, 1.000000000000000000e+00, 1.000000000000000000e+02
5.800000000000000000e+01, 3.800512999999999920e+03, 4.104614999999999782e+03, 4.107692000000000007e+03, 4.140512999999999920e+03, 3.825641000000000076e+03, 1.000000000000000000e+00, 1.000000000000000000e+00, 1.000000000000000000e+02
5.900000000000000000e+01, 3.807692000000000007e+03, 4.100512999999999920e+03, 4.105127999999999702e+03, 4.139487000000000080e+03, 3.825128000000000156e+03, 1.000000000000000000e+00, 1.000000000000000000e+00, 1.000000000000000000e+02
6.000000000000000000e+01, 3.812820999999999913e+03, 4.104614999999999782e+03, 4.101537999999999556e+03, 4.138974000000000160e+03, 3.826666999999999916e+03, 1.000000000000000000e+00, 1.000000000000000000e+00, 1.000000000000000000e+02
6.100000000000000000e+01, 3.806153999999999996e+03, 4.108717999999999847e+03, 4.114359000000000378e+03, 4.140512999999999920e+03, 3.836409999999999854e+03, 1.000000000000000000e+00, 1.000000000000000000e+00, 1.000000000000000000e+02
6.200000000000000000e+01, 3.801025999999999840e+03, 4.104614999999999782e+03, 4.128717999999999847e+03, 4.149743999999999687e+03, 3.839487000000000080e+03, 1.000000000000000000e+00, 1.000000000000000000e+00, 1.000000000000000000e+02
6.300000000000000000e+01, 3.804614999999999782e+03, 4.108717999999999847e+03, 4.128717999999999847e+03, 4.156409999999999854e+03, 3.831795000000000073e+03, 1.000000000000000000e+00, 1.000000000000000000e+00, 1.000000000000000000e+02
6.400000000000000000e+01, 3.804103000000000065e+03, 4.118974000000000160e+03, 4.115896999999999935e+03, 4.146154000000000451e+03, 3.823077000000000226e+03, 1.000000000000000000e+00, 1.000000000000000000e+00, 1.000000000000000000e+02
6.500000000000000000e+01, 3.803077000000000226e+03, 4.125127999999999702e+03, 4.107179000000000087e+03, 4.141537999999999556e+03, 3.823590000000000146e+03, 1.000000000000000000e+00, 1.000000000000000000e+00, 1.000000000000000000e+02
6.600000000000000000e+01, 3.817949000000000069e+03, 4.123077000000000226e+03, 4.110769000000000233e+03, 4.151282000000000153e+03, 3.836409999999999854e+03, 1.000000000000000000e+00, 1.000000000000000000e+00, 1.000000000000000000e+02
6.700000000000000000e+01, 3.836922999999999774e+03, 4.118974000000000160e+03, 4.111795000000000073e+03, 4.149743999999999687e+03, 3.843590000000000146e+03, 1.000000000000000000e+00, 1.000000000000000000e+00, 1.000000000000000000e+02
6.800000000000000000e+01, 3.845128000000000156e+03, 4.112820999999999913e+03, 4.111282000000000153e+03, 4.150256000000000313e+03, 3.844614999999999782e+03, 1.000000000000000000e+00, 1.000000000000000000e+00, 1.000000000000000000e+02
6.900000000000000000e+01, 3.852307999999999993e+03, 4.110769000000000233e+03, 4.113332999999999629e+03, 4.162051000000000386e+03, 3.846153999999999996e+03, 1.000000000000000000e+00, 1.000000000000000000e+00, 1.000000000000000000e+02
7.000000000000000000e+01, 3.854358999999999924e+03, 4.116922999999999774e+03, 4.106154000000000451e+03, 4.153845999999999549e+03, 3.846153999999999996e+03, 1.000000000000000000e+00, 1.000000000000000000e+00, 1.000000000000000000e+02
7.100000000000000000e+01, 3.856409999999999854e+03, 4.110769000000000233e+03, 4.091795000000000073e+03, 4.142564000000000306e+03, 3.850255999999999858e+03, 1.000000000000000000e+00, 1.000000000000000000e+00, 1.000000000000000000e+02
7.200000000000000000e+01, 3.860512999999999920e+03, 4.106667000000000371e+03, 4.089744000000000142e+03, 4.150256000000000313e+03, 3.850255999999999858e+03, 1.000000000000000000e+00, 1.000000000000000000e+00, 1.000000000000000000e+02
7.300000000000000000e+01, 3.852307999999999993e+03, 4.110769000000000233e+03, 4.092307999999999993e+03, 4.152307999999999993e+03, 3.842563999999999851e+03, 1.000000000000000000e+00, 1.000000000000000000e+00, 1.000000000000000000e+02
7.400000000000000000e+01, 3.844103000000000065e+03, 4.110769000000000233e+03, 4.087692000000000007e+03, 4.137948999999999614e+03, 3.837436000000000149e+03, 1.000000000000000000e+00, 1.000000000000000000e+00, 1.000000000000000000e+02
7.500000000000000000e+01, 3.853333000000000084e+03, 4.110769000000000233e+03, 4.093333000000000084e+03, 4.134359000000000378e+03, 3.840512999999999920e+03, 1.000000000000000000e+00, 1.000000000000000000e+00, 1.000000000000000000e+02
7.600000000000000000e+01, 3.867692000000000007e+03, 4.123077000000000226e+03, 4.106667000000000371e+03, 4.147692000000000007e+03, 3.854871999999999844e+03, 1.000000000000000000e+00, 1.000000000000000000e+00, 1.000000000000000000e+02
7.700000000000000000e+01, 3.868717999999999847e+03, 4.127179000000000087e+03, 4.108204999999999927e+03, 4.157435999999999694e+03, 3.864614999999999782e+03, 1.000000000000000000e+00, 1.000000000000000000e+00, 1.000000000000000000e+02
7.800000000000000000e+01, 3.864614999999999782e+03, 4.118974000000000160e+03, 4.103077000000000226e+03, 4.157948999999999614e+03, 3.857436000000000149e+03, 1.000000000000000000e+00, 1.000000000000000000e+00, 1.000000000000000000e+02
7.900000000000000000e+01, 3.869231000000000222e+03, 4.118974000000000160e+03, 4.110769000000000233e+03, 4.151282000000000153e+03, 3.852820999999999913e+03, 1.000000000000000000e+00, 1.000000000000000000e+00, 1.000000000000000000e+02
8.000000000000000000e+01, 3.876409999999999854e+03, 4.125127999999999702e+03, 4.112307999999999993e+03, 4.144103000000000065e+03, 3.861538000000000011e+03, 1.000000000000000000e+00, 1.000000000000000000e+00, 1.000000000000000000e+02
8.100000000000000000e+01, 3.877436000000000149e+03, 4.116922999999999774e+03, 4.093846000000000004e+03, 4.142051000000000386e+03, 3.868204999999999927e+03, 1.000000000000000000e+00, 1.000000000000000000e+00, 1.000000000000000000e+02
8.200000000000000000e+01, 3.876922999999999774e+03, 4.108717999999999847e+03, 4.091282000000000153e+03, 4.134872000000000298e+03, 3.870768999999999778e+03, 1.000000000000000000e+00, 1.000000000000000000e+00, 1.000000000000000000e+02
8.300000000000000000e+01, 3.885641000000000076e+03, 4.114872000000000298e+03, 4.107692000000000007e+03, 4.135385000000000218e+03, 3.876922999999999774e+03, 1.000000000000000000e+00, 1.000000000000000000e+00, 1.000000000000000000e+02
8.400000000000000000e+01, 3.893846000000000004e+03, 4.123077000000000226e+03, 4.108204999999999927e+03, 4.149230999999999767e+03, 3.881025999999999840e+03, 1.000000000000000000e+00, 1.000000000000000000e+00, 1.000000000000000000e+02
8.500000000000000000e+01, 3.900000000000000000e+03, 4.123077000000000226e+03, 4.102051000000000386e+03, 4.150769000000000233e+03, 3.884614999999999782e+03, 1.000000000000000000e+00, 1.000000000000000000e+00, 1.000000000000000000e+02
8.600000000000000000e+01, 3.920512999999999920e+03, 4.125127999999999702e+03, 4.113845999999999549e+03, 4.143077000000000226e+03, 3.896409999999999854e+03, 1.000000000000000000e+00, 1.000000000000000000e+00, 1.000000000000000000e+02
8.700000000000000000e+01, 3.934358999999999924e+03, 4.135385000000000218e+03, 4.118462000000000444e+03, 4.145640999999999622e+03, 3.903590000000000146e+03, 1.000000000000000000e+00, 1.000000000000000000e+00, 1.000000000000000000e+02
8.800000000000000000e+01, 3.926153999999999996e+03, 4.143590000000000146e+03, 4.102051000000000386e+03, 4.139487000000000080e+03, 3.894358999999999924e+03, 1.000000000000000000e+00, 1.000000000000000000e+00, 1.000000000000000000e+02
8.900000000000000000e+01, 3.929231000000000222e+03, 4.143590000000000146e+03, 4.105127999999999702e+03, 4.136922999999999774e+03, 3.896409999999999854e+03, 1.000000000000000000e+00, 1.000000000000000000e+00, 1.000000000000000000e+02
9.000000000000000000e+01, 3.941538000000000011e+03, 4.145640999999999622e+03, 4.124103000000000065e+03, 4.157948999999999614e+03, 3.916409999999999854e+03, 1.000000000000000000e+00, 1.000000000000000000e+00, 1.000000000000000000e+02
9.100000000000000000e+01, 3.933846000000000004e+03, 4.145640999999999622e+03, 4.116409999999999854e+03, 4.158462000000000444e+03, 3.923590000000000146e+03, 1.000000000000000000e+00, 1.000000000000000000e+00, 1.000000000000000000e+02
9.200000000000000000e+01, 3.925128000000000156e+03, 4.131282000000000153e+03, 4.091795000000000073e+03, 4.140512999999999920e+03, 3.917436000000000149e+03, 1.000000000000000000e+00, 1.000000000000000000e+00, 1.000000000000000000e+02
9.300000000000000000e+01, 3.927179000000000087e+03, 4.123077000000000226e+03, 4.084614999999999782e+03, 4.145127999999999702e+03, 3.914358999999999924e+03, 1.000000000000000000e+00, 1.000000000000000000e+00, 1.000000000000000000e+02
9.400000000000000000e+01, 3.928204999999999927e+03, 4.141537999999999556e+03, 4.089231000000000222e+03, 4.154359000000000378e+03, 3.926153999999999996e+03, 1.000000000000000000e+00, 1.000000000000000000e+00, 1.000000000000000000e+02
9.500000000000000000e+01, 3.934871999999999844e+03, 4.155896999999999935e+03, 4.095385000000000218e+03, 4.148204999999999927e+03, 3.939487000000000080e+03, 1.000000000000000000e+00, 1.000000000000000000e+00, 1.000000000000000000e+02
9.600000000000000000e+01, 3.944103000000000065e+03, 4.153845999999999549e+03, 4.102564000000000306e+03, 4.144103000000000065e+03, 3.937949000000000069e+03, 1.000000000000000000e+00, 1.000000000000000000e+00, 1.000000000000000000e+02
9.700000000000000000e+01, 3.935385000000000218e+03, 4.153845999999999549e+03, 4.107179000000000087e+03, 4.142564000000000306e+03, 3.931795000000000073e+03, 1.000000000000000000e+00, 1.000000000000000000e+00, 1.000000000000000000e+02
9.800000000000000000e+01, 3.909231000000000222e+03, 4.151795000000000073e+03, 4.101537999999999556e+03, 4.140000000000000000e+03, 3.935385000000000218e+03, 1.000000000000000000e+00, 1.000000000000000000e+00, 1.000000000000000000e+02
9.900000000000000000e+01, 3.900512999999999920e+03, 4.153845999999999549e+03, 4.103077000000000226e+03, 4.145640999999999622e+03, 3.945128000000000156e+03, 1.000000000000000000e+00, 1.000000000000000000e+00, 1.000000000000000000e+02
1.000000000000000000e+02, 3.909744000000000142e+03, 4.155896999999999935e+03, 4.120000000000000000e+03, 4.150256000000000313e+03, 3.947692000000000007e+03, 1.000000000000000000e+00, 1.000000000000000000e+00, 1.000000000000000000e+02
1.010000000000000000e+02, 3.913333000000000084e+03, 4.149743999999999687e+03, 4.122051000000000386e+03, 4.151282000000000153e+03, 3.941538000000000011e+03, 1.000000000000000000e+00, 1.000000000000000000e+00, 1.000000000000000000e+02
1.020000000000000000e+02, 3.910255999999999858e+03, 4.155896999999999935e+03, 4.109230999999999767e+03, 4.162564000000000306e+03, 3.941538000000000011e+03, 1.000000000000000000e+00, 1.000000000000000000e+00, 1.000000000000000000e+02
1.030000000000000000e+02, 3.907179000000000087e+03, 4.168204999999999927e+03, 4.104103000000000065e+03, 4.174872000000000298e+03, 3.952820999999999913e+03, 1.000000000000000000e+00, 1.000000000000000000e+00, 1.000000000000000000e+02
1.040000000000000000e+02, 3.905128000000000156e+03, 4.157948999999999614e+03, 4.100512999999999920e+03, 4.163590000000000146e+03, 3.952307999999999993e+03, 1.000000000000000000e+00, 1.000000000000000000e+00, 1.000000000000000000e+02
1.050000000000000000e+02, 3.910255999999999858e+03, 4.149743999999999687e+03, 4.086153999999999996e+03, 4.145640999999999622e+03, 3.931795000000000073e+03, 1.000000000000000000e+00, 1.000000000000000000e+00, 1.000000000000000000e+02
1.060000000000000000e+02, 3.923077000000000226e+03, 4.166154000000000451e+03, 4.088204999999999927e+03, 4.155385000000000218e+03, 3.940512999999999920e+03, 1.000000000000000000e+00, 1.000000000000000000e+00, 1.000000000000000000e+02
1.070000000000000000e+02, 3.935896999999999935e+03, 4.174359000000000378e+03, 4.103077000000000226e+03, 4.162051000000000386e+03, 3.972820999999999913e+03, 1.000000000000000000e+00, 1.000000000000000000e+00, 1.000000000000000000e+02
1.080000000000000000e+02, 3.935385000000000218e+03, 4.166154000000000451e+03, 4.096409999999999854e+03, 4.139487000000000080e+03, 3.971795000000000073e+03, 1.000000000000000000e+00, 1.000000000000000000e+00, 1.000000000000000000e+02
1.090000000000000000e+02, 3.934358999999999924e+03, 4.166154000000000451e+03, 4.087179000000000087e+03, 4.136409999999999854e+03, 3.957949000000000069e+03, 1.000000000000000000e+00, 1.000000000000000000e+00, 1.000000000000000000e+02
1.100000000000000000e+02, 3.944103000000000065e+03, 4.176409999999999854e+03, 4.097435999999999694e+03, 4.158974000000000160e+03, 3.966153999999999996e+03, 1.000000000000000000e+00, 1.000000000000000000e+00, 1.000000000000000000e+02
1.110000000000000000e+02, 3.953846000000000004e+03, 4.184614999999999782e+03, 4.105640999999999622e+03, 4.160512999999999920e+03, 3.974358999999999924e+03, 1.000000000000000000e+00, 1.000000000000000000e+00, 1.000000000000000000e+02
1.120000000000000000e+02, 3.956409999999999854e+03, 4.186667000000000371e+03, 4.106154000000000451e+03, 4.157948999999999614e+03, 3.979487000000000080e+03, 1.000000000000000000e+00, 1.000000000000000000e+00, 1.000000000000000000e+02
1.130000000000000000e+02, 3.960512999999999920e+03, 4.188717999999999847e+03, 4.105640999999999622e+03, 4.165640999999999622e+03, 3.986153999999999996e+03, 1.000000000000000000e+00, 1.000000000000000000e+00, 1.000000000000000000e+02
1.140000000000000000e+02, 3.971795000000000073e+03, 4.186667000000000371e+03, 4.098462000000000444e+03, 4.156922999999999774e+03, 3.994358999999999924e+03, 1.000000000000000000e+00, 1.000000000000000000e+00, 1.000000000000000000e+02
1.150000000000000000e+02, 3.982563999999999851e+03, 4.184614999999999782e+03, 4.091282000000000153e+03, 4.152820999999999913e+03, 4.011282000000000153e+03, 1.000000000000000000e+00, 1.000000000000000000e+00, 1.000000000000000000e+02
1.160000000000000000e+02, 3.987179000000000087e+03, 4.186667000000000371e+03, 4.089744000000000142e+03, 4.166154000000000451e+03, 4.017949000000000069e+03, 1.000000000000000000e+00, 1.000000000000000000e+00, 1.000000000000000000e+02
1.170000000000000000e+02, 3.983590000000000146e+03, 4.178462000000000444e+03, 4.075896999999999935e+03, 4.151795000000000073e+03, 4.001025999999999840e+03, 1.000000000000000000e+00, 1.000000000000000000e+00, 1.000000000000000000e+02
1.180000000000000000e+02, 3.984103000000000065e+03, 4.166154000000000451e+03, 4.066666999999999916e+03, 4.130256000000000313e+03, 3.996409999999999854e+03, 1.000000000000000000e+00, 1.000000000000000000e+00, 1.000000000000000000e+02
1.190000000000000000e+02, 4.000000000000000000e+03, 4.182564000000000306e+03, 4.089231000000000222e+03, 4.141025999999999840e+03, 4.015385000000000218e+03, 1.000000000000000000e+00, 1.000000000000000000e+00, 1.000000000000000000e+02
1.200000000000000000e+02, 4.013333000000000084e+03, 4.205127999999999702e+03, 4.115896999999999935e+03, 4.156409999999999854e+03, 4.026153999999999996e+03, 1.000000000000000000e+00, 1.000000000000000000e+00, 1.000000000000000000e+02
1.210000000000000000e+02, 4.024103000000000065e+03, 4.207179000000000087e+03, 4.124103000000000065e+03, 4.162051000000000386e+03, 4.038974000000000160e+03, 1.000000000000000000e+00, 1.000000000000000000e+00, 1.000000000000000000e+02
1.220000000000000000e+02, 4.034358999999999924e+03, 4.203077000000000226e+03, 4.126667000000000371e+03, 4.171282000000000153e+03, 4.059487000000000080e+03, 1.000000000000000000e+00, 1.000000000000000000e+00, 1.000000000000000000e+02
1.230000000000000000e+02, 4.028204999999999927e+03, 4.201025999999999840e+03, 4.127179000000000087e+03, 4.174872000000000298e+03, 4.058461999999999989e+03, 1.000000000000000000e+00, 1.000000000000000000e+00, 1.000000000000000000e+02
1.240000000000000000e+02, 4.023077000000000226e+03, 4.203077000000000226e+03, 4.131795000000000073e+03, 4.169743999999999687e+03, 4.053333000000000084e+03, 1.000000000000000000e+00, 1.000000000000000000e+00, 1.000000000000000000e+02
1.250000000000000000e+02, 4.033846000000000004e+03, 4.207179000000000087e+03, 4.140000000000000000e+03, 4.168717999999999847e+03, 4.057436000000000149e+03, 1.000000000000000000e+00, 1.000000000000000000e+00, 1.000000000000000000e+02
1.260000000000000000e+02, 4.046153999999999996e+03, 4.205127999999999702e+03, 4.136922999999999774e+03, 4.169230999999999767e+03, 4.061025999999999840e+03, 1.000000000000000000e+00, 1.000000000000000000e+00, 1.000000000000000000e+02
1.270000000000000000e+02, 4.056409999999999854e+03, 4.207179000000000087e+03, 4.125127999999999702e+03, 4.164614999999999782e+03, 4.070255999999999858e+03, 1.000000000000000000e+00, 1.000000000000000000e+00, 1.000000000000000000e+02
0.000000000000000000e+00, 4.057436000000000149e+03, 4.211282000000000153e+03, 4.115896999999999935e+03, 4.154872000000000298e+03, 4.070768999999999778e+03, 1.000000000000000000e+00, 1.000000000000000000e+00, 1.000000000000000000e+02
1.000000000000000000e+00, 4.044103000000000065e+03, 4.198974000000000160e+03, 4.101537999999999556e+03, 4.138462000000000444e+03, 4.051795000000000073e+03, 1.000000000000000000e+00, 1.000000000000000000e+00, 1.000000000000000000e+02
2.000000000000000000e+00, 4.037949000000000069e+03, 4.194872000000000298e+03, 4.087179000000000087e+03, 4.135896999999999935e+03, 4.045128000000000156e+03, 1.000000000000000000e+00, 1.000000000000000000e+00, 1.000000000000000000e+02
3.000000000000000000e+00, 4.046153999999999996e+03, 4.203077000000000226e+03, 4.093333000000000084e+03, 4.148204999999999927e+03, 4.053846000000000004e+03, 1.000000000000000000e+00, 1.000000000000000000e+00, 1.000000000000000000e+02
4.000000000000000000e+00, 4.055896999999999935e+03, 4.201025999999999840e+03, 4.110256000000000313e+03, 4.159487000000000080e+03, 4.062050999999999931e+03, 1.000000000000000000e+00, 1.000000000000000000e+00, 1.000000000000000000e+02
5.000000000000000000e+00, 4.064103000000000065e+03, 4.205127999999999702e+03, 4.120512999999999920e+03, 4.162564000000000306e+03, 4.073333000000000084e+03, 1.000000000000000000e+00, 1.000000000000000000e+00, 1.000000000000000000e+02
6.000000000000000000e+00, 4.072307999999999993e+03, 4.213332999999999629e+03, 4.123077000000000226e+03, 4.161537999999999556e+03, 4.081538000000000011e+03, 1.000000000000000000e+00, 1.000000000000000000e+00, 1.000000000000000000e+02
7.000000000000000000e+00, 4.078974000000000160e+03, 4.201025999999999840e+03, 4.128204999999999927e+03, 4.158974000000000160e+03, 4.083077000000000226e+03, 1.000000000000000000e+00, 1.000000000000000000e+00, 1.000000000000000000e+02
8.000000000000000000e+00, 4.088717999999999847e+03, 4.188717999999999847e+03, 4.130769000000000233e+03, 4.162564000000000306e+03, 4.090768999999999778e+03, 1.000000000000000000e+00, 1.000000000000000000e+00, 1.000000000000000000e+02
9.000000000000000000e+00, 4.097948999999999614e+03, 4.201025999999999840e+03, 4.125640999999999622e+03, 4.172307999999999993e+03, 4.096922999999999774e+03, 1.000000000000000000e+00, 1.000000000000000000e+00, 1.000000000000000000e+02
1.000000000000000000e+01, 4.102051000000000386e+03, 4.209230999999999767e+03, 4.121537999999999556e+03, 4.169743999999999687e+03, 4.097948999999999614e+03, 1.000000000000000000e+00, 1.000000000000000000e+00, 1.000000000000000000e+02
1.100000000000000000e+01, 4.107179000000000087e+03, 4.198974000000000160e+03, 4.115896999999999935e+03, 4.156922999999999774e+03, 4.105127999999999702e+03, 1.000000000000000000e+00, 1.000000000000000000e+00, 1.000000000000000000e+02
1.200000000000000000e+01, 4.115385000000000218e+03, 4.198974000000000160e+03, 4.107179000000000087e+03, 4.151795000000000073e+03, 4.111282000000000153e+03, 1.000000000000000000e+00, 1.000000000000000000e+00, 1.000000000000000000e+02
1.300000000000000000e+01, 4.120512999999999920e+03, 4.217435999999999694e+03, 4.101025999999999840e+03, 4.158974000000000160e+03, 4.107179000000000087e+03, 1.000000000000000000e+00, 1.000000000000000000e+00, 1.000000000000000000e+02
1.400000000000000000e+01, 4.125640999999999622e+03, 4.221537999999999556e+03, 4.108204999999999927e+03, 4.167179000000000087e+03, 4.111282000000000153e+03, 1.000000000000000000e+00, 1.000000000000000000e+00, 1.000000000000000000e+02
1.500000000000000000e+01, 4.132820999999999913e+03, 4.211282000000000153e+03, 4.127692000000000007e+03, 4.170769000000000233e+03, 4.127179000000000087e+03, 1.000000000000000000e+00, 1.000000000000000000e+00, 1.000000000000000000e+02
1.600000000000000000e+01, 4.139487000000000080e+03, 4.221537999999999556e+03, 4.133332999999999629e+03, 4.168204999999999927e+03, 4.135385000000000218e+03, 1.000000000000000000e+00, 1.000000000000000000e+00, 1.000000000000000000e+02
1.700000000000000000e+01, 4.139487000000000080e+03, 4.235896999999999935e+03, 4.117435999999999694e+03, 4.161025999999999840e+03, 4.126154000000000451e+03, 1.000000000000000000e+00, 1.000000000000000000e+00, 1.000000000000000000e+02
1.800000000000000000e+01, 4.132307999999999993e+03, 4.221537999999999556e+03, 4.114359000000000378e+03, 4.153332999999999629e+03, 4.106154000000000451e+03, 1.000000000000000000e+00, 1.000000000000000000e+00, 1.000000000000000000e+02
1.900000000000000000e+01, 4.133332999999999629e+03, 4.209230999999999767e+03, 4.122051000000000386e+03, 4.147692000000000007e+03, 4.097948999999999614e+03, 1.000000000000000000e+00, 1.000000000000000000e+00, 1.000000000000000000e+02
2.000000000000000000e+01, 4.150256000000000313e+03, 4.213332999999999629e+03, 4.109743999999999687e+03, 4.146154000000000451e+03, 4.102564000000000306e+03, 1.000000000000000000e+00, 1.000000000000000000e+00, 1.000000000000000000e+02
2.100000000000000000e+01, 4.169743999999999687e+03, 4.215385000000000218e+03, 4.105640999999999622e+03, 4.153332999999999629e+03, 4.115385000000000218e+03, 1.000000000000000000e+00, 1.000000000000000000e+00, 1.000000000000000000e+02
2.200000000000000000e+01, 4.178974000000000160e+03, 4.213332999999999629e+03, 4.114359000000000378e+03, 4.166154000000000451e+03, 4.139487000000000080e+03, 1.000000000000000000e+00, 1.000000000000000000e+00, 1.000000000000000000e+02
2.300000000000000000e+01, 4.175385000000000218e+03, 4.213332999999999629e+03, 4.108204999999999927e+03, 4.169743999999999687e+03, 4.155896999999999935e+03, 1.000000000000000000e+00, 1.000000000000000000e+00, 1.000000000000000000e+02
2.400000000000000000e+01, 4.172307999999999993e+03, 4.211282000000000153e+03, 4.108204999999999927e+03, 4.166667000000000371e+03, 4.160512999999999920e+03, 1.000000000000000000e+00, 1.000000000000000000e+00, 1.000000000000000000e+02
2.500000000000000000e+01, 4.178462000000000444e+03, 4.215385000000000218e+03, 4.118974000000000160e+03, 4.171795000000000073e+03, 4.163077000000000226e+03, 1.000000000000000000e+00, 1.000000000000000000e+00, 1.000000000000000000e+02
2.600000000000000000e+01, 4.188204999999999927e+03, 4.223590000000000146e+03, 4.117435999999999694e+03, 4.178974000000000160e+03, 4.166667000000000371e+03, 1.000000000000000000e+00, 1.000000000000000000e+00, 1.000000000000000000e+02
2.700000000000000000e+01, 4.188204999999999927e+03, 4.229743999999999687e+03, 4.115896999999999935e+03, 4.183590000000000146e+03, 4.168717999999999847e+03, 1.000000000000000000e+00, 1.000000000000000000e+00, 1.000000000000000000e+02
2.800000000000000000e+01, 4.180000000000000000e+03, 4.233845999999999549e+03, 4.121025999999999840e+03, 4.178974000000000160e+03, 4.168204999999999927e+03, 1.000000000000000000e+00, 1.000000000000000000e+00, 1.000000000000000000e+02
2.900000000000000000e+01, 4.182051000000000386e+03, 4.225640999999999622e+03, 4.120512999999999920e+03, 4.174359000000000378e+03, 4.166667000000000371e+03, 1.000000000000000000e+00, 1.000000000000000000e+00, 1.000000000000000000e+02
3.000000000000000000e+01, 4.190256000000000313e+03, 4.219487000000000080e+03, 4.113332999999999629e+03, 4.173332999999999629e+03, 4.160512999999999920e+03, 1.000000000000000000e+00, 1.000000000000000000e+00, 1.000000000000000000e+02
3.100000000000000000e+01, 4.196409999999999854e+03, 4.217435999999999694e+03, 4.109743999999999687e+03, 4.172307999999999993e+03, 4.157435999999999694e+03, 1.000000000000000000e+00, 1.000000000000000000e+00, 1.000000000000000000e+02
3.200000000000000000e+01, 4.206154000000000451e+03, 4.223590000000000146e+03, 4.115385000000000218e+03, 4.170256000000000313e+03, 4.168204999999999927e+03, 1.000000000000000000e+00, 1.000000000000000000e+00, 1.000000000000000000e+02
3.300000000000000000e+01, 4.216409999999999854e+03, 4.229743999999999687e+03, 4.124614999999999782e+03, 4.166154000000000451e+03, 4.174872000000000298e+03, 1.000000000000000000e+00, 1.000000000000000000e+00, 1.000000000000000000e+02
3.400000000000000000e+01, 4.220512999999999920e+03, 4.233845999999999549e+03, 4.125127999999999702e+03, 4.167179000000000087e+03, 4.175385000000000218e+03, 1.000000000000000000e+00, 1.000000000000000000e+00, 1.000000000000000000e+02
3.500000000000000000e+01, 4.217435999999999694e+03, 4.229743999999999687e+03, 4.121537999999999556e+03, 4.168204999999999927e+03, 4.178974000000000160e+03, 1.000000000000000000e+00, 1.000000000000000000e+00, 1.000000000000000000e+02
3.600000000000000000e+01, 4.215385000000000218e+03, 4.219487000000000080e+03, 4.122564000000000306e+03, 4.166154000000000451e+03, 4.178462000000000444e+03, 1.000000000000000000e+00, 1.000000000000000000e+00, 1.000000000000000000e+02
3.700000000000000000e+01, 4.218974000000000160e+03, 4.221537999999999556e+03, 4.125127999999999702e+03, 4.168204999999999927e+03, 4.177435999999999694e+03, 1.000000000000000000e+00, 1.000000000000000000e+00, 1.000000000000000000e+02
3.800000000000000000e+01, 4.219487000000000080e+03, 4.233845999999999549e+03, 4.124614999999999782e+03, 4.171795000000000073e+03, 4.181025999999999840e+03, 1.000000000000000000e+00, 1.000000000000000000e+00, 1.000000000000000000e+02
3.900000000000000000e+01, 4.217948999999999614e+03, 4.233845999999999549e+03, 4.120512999999999920e+03, 4.169743999999999687e+03, 4.183590000000000146e+03, 1.000000000000000000e+00, 0.000000000000000000e+00, 1.000000000000000000e+02
4.000000000000000000e+01, 4.229743999999999687e+03, 4.219487000000000080e+03, 4.121537999999999556e+03, 4.166667000000000371e+03, 4.181025999999999840e+03, 1.000000000000000000e+00, 0.000000000000000000e+00, 1.000000000000000000e+02
4.100000000000000000e+01, 4.242564000000000306e+03, 4.223590000000000146e+03, 4.122564000000000306e+03, 4.171795000000000073e+03, 4.181025999999999840e+03, 1.000000000000000000e+00, 0.000000000000000000e+00, 1.000000000000000000e+02
4.200000000000000000e+01, 4.238974000000000160e+03, 4.242051000000000386e+03, 4.115896999999999935e+03, 4.174359000000000378e+03, 4.187692000000000007e+03, 1.000000000000000000e+00, 0.000000000000000000e+00, 1.000000000000000000e+02
4.300000000000000000e+01, 4.233332999999999629e+03, 4.252307999999999993e+03, 4.115385000000000218e+03, 4.169743999999999687e+03, 4.195385000000000218e+03, 1.000000000000000000e+00, 0.000000000000000000e+00, 1.000000000000000000e+02
4.400000000000000000e+01, 4.227692000000000007e+03, 4.248204999999999927e+03, 4.120512999999999920e+03, 4.168204999999999927e+03, 4.196922999999999774e+03, 1.000000000000000000e+00, 0.000000000000000000e+00, 1.000000000000000000e+02
4.500000000000000000e+01, 4.217435999999999694e+03, 4.250256000000000313e+03, 4.124103000000000065e+03, 4.169743999999999687e+03, 4.196409999999999854e+03, 1.000000000000000000e+00, 0.000000000000000000e+00, 1.000000000000000000e+02
4.600000000000000000e+01, 4.215896999999999935e+03, 4.264614999999999782e+03, 4.128204999999999927e+03, 4.170256000000000313e+03, 4.196922999999999774e+03, 1.000000000000000000e+00, 0.000000000000000000e+00, 1.000000000000000000e+02
4.700000000000000000e+01, 4.224103000000000065e+03, 4.268717999999999847e+03, 4.125640999999999622e+03, 4.172820999999999913e+03, 4.195385000000000218e+03, 1.000000000000000000e+00, 0.000000000000000000e+00, 1.000000000000000000e+02
4.800000000000000000e+01, 4.217948999999999614e+03, 4.262564000000000306e+03, 4.120000000000000000e+03, 4.174359000000000378e+03, 4.197948999999999614e+03, 1.000000000000000000e+00, 0.000000000000000000e+00, 1.000000000000000000e+02
4.900000000000000000e+01, 4.206154000000000451e+03, 4.266667000000000371e+03, 4.123590000000000146e+03, 4.174359000000000378e+03, 4.209230999999999767e+03, 1.000000000000000000e+00, 0.000000000000000000e+00, 1.000000000000000000e+02
5.000000000000000000e+01, 4.201025999999999840e+03, 4.278974000000000160e+03, 4.127179000000000087e+03, 4.180000000000000000e+03, 4.209743999999999687e+03, 1.000000000000000000e+00, 0.000000000000000000e+00, 1.000000000000000000e+02
5.100000000000000000e+01, 4.194872000000000298e+03, 4.272820999999999913e+03, 4.121025999999999840e+03, 4.176409999999999854e+03, 4.195385000000000218e+03, 1.000000000000000000e+00, 0.000000000000000000e+00, 1.000000000000000000e+02
5.200000000000000000e+01, 4.204103000000000065e+03, 4.260512999999999920e+03, 4.120000000000000000e+03, 4.172820999999999913e+03, 4.201537999999999556e+03, 1.000000000000000000e+00, 0.000000000000000000e+00, 1.000000000000000000e+02
5.300000000000000000e+01, 4.217948999999999614e+03, 4.264614999999999782e+03, 4.116922999999999774e+03, 4.182564000000000306e+03, 4.212820999999999913e+03, 1.000000000000000000e+00, 0.000000000000000000e+00, 1.000000000000000000e+02
5.400000000000000000e+01, 4.208204999999999927e+03, 4.264614999999999782e+03, 4.103590000000000146e+03, 4.180512999999999920e+03, 4.201025999999999840e+03, 1.000000000000000000e+00, 0.000000000000000000e+00, 1.000000000000000000e+02
5.500000000000000000e+01, 4.200512999999999920e+03, 4.264614999999999782e+03, 4.106154000000000451e+03, 4.167692000000000007e+03, 4.198974000000000160e+03, 1.000000000000000000e+00, 0.000000000000000000e+00, 1.000000000000000000e+02
5.600000000000000000e+01, 4.215896999999999935e+03, 4.276922999999999774e+03, 4.119487000000000080e+03, 4.173845999999999549e+03, 4.222564000000000306e+03, 1.000000000000000000e+00, 0.000000000000000000e+00, 1.000000000000000000e+02
5.700000000000000000e+01, 4.223077000000000226e+03, 4.283077000000000226e+03, 4.113845999999999549e+03, 4.189230999999999767e+03, 4.239487000000000080e+03, 1.000000000000000000e+00, 0.000000000000000000e+00, 1.000000000000000000e+02
5.800000000000000000e+01, 4.213332999999999629e+03, 4.276922999999999774e+03, 4.102564000000000306e+03, 4.182564000000000306e+03, 4.235385000000000218e+03, 1.000000000000000000e+00, 0.000000000000000000e+00, 1.000000000000000000e+02
5.900000000000000000e+01, 4.224614999999999782e+03, 4.270769000000000233e+03, 4.105640999999999622e+03, 4.169743999999999687e+03, 4.231795000000000073e+03, 1.000000000000000000e+00, 0.000000000000000000e+00, 1.000000000000000000e+02
6.000000000000000000e+01, 4.237435999999999694e+03, 4.262564000000000306e+03, 4.108717999999999847e+03, 4.167179000000000087e+03, 4.227179000000000087e+03, 1.000000000000000000e+00, 0.000000000000000000e+00, 1.000000000000000000e+02
6.100000000000000000e+01, 4.215385000000000218e+03, 4.256409999999999854e+03, 4.102051000000000386e+03, 4.165640999999999622e+03, 4.208717999999999847e+03, 1.000000000000000000e+00, 0.000000000000000000e+00, 1.000000000000000000e+02
6.200000000000000000e+01, 4.206154000000000451e+03, 4.258462000000000444e+03, 4.103077000000000226e+03, 4.169230999999999767e+03, 4.209743999999999687e+03, 1.000000000000000000e+00, 0.000000000000000000e+00, 1.000000000000000000e+02
6.300000000000000000e+01, 4.240000000000000000e+03, 4.272820999999999913e+03, 4.110256000000000313e+03, 4.178974000000000160e+03, 4.234359000000000378e+03, 1.000000000000000000e+00, 0.000000000000000000e+00, 1.000000000000000000e+02
6.400000000000000000e+01, 4.272307999999999993e+03, 4.281025999999999840e+03, 4.104614999999999782e+03, 4.180512999999999920e+03, 4.246667000000000371e+03, 1.000000000000000000e+00, 0.000000000000000000e+00, 1.000000000000000000e+02
6.500000000000000000e+01, 4.286154000000000451e+03, 4.278974000000000160e+03, 4.095385000000000218e+03, 4.171795000000000073e+03, 4.255385000000000218e+03, 1.000000000000000000e+00, 0.000000000000000000e+00, 1.000000000000000000e+02
6.600000000000000000e+01, 4.303077000000000226e+03, 4.278974000000000160e+03, 4.103590000000000146e+03, 4.163077000000000226e+03, 4.270769000000000233e+03, 1.000000000000000000e+00, 0.000000000000000000e+00, 1.000000000000000000e+02
6.700000000000000000e+01, 4.324614999999999782e+03, 4.283077000000000226e+03, 4.118462000000000444e+03, 4.169230999999999767e+03, 4.289743999999999687e+03, 1.000000000000000000e+00, 0.000000000000000000e+00, 1.000000000000000000e+02
6.800000000000000000e+01, 4.333332999999999629e+03, 4.278974000000000160e+03, 4.122051000000000386e+03, 4.182051000000000386e+03, 4.307179000000000087e+03, 1.000000000000000000e+00, 0.000000000000000000e+00, 1.000000000000000000e+02
6.900000000000000000e+01, 4.329743999999999687e+03, 4.274872000000000298e+03, 4.121537999999999556e+03, 4.183077000000000226e+03, 4.304614999999999782e+03, 1.000000000000000000e+00, 0.000000000000000000e+00, 1.000000000000000000e+02
7.000000000000000000e+01, 4.322564000000000306e+03, 4.281025999999999840e+03, 4.124103000000000065e+03, 4.176409999999999854e+03, 4.288204999999999927e+03, 1.000000000000000000e+00, 0.000000000000000000e+00, 1.000000000000000000e+02
7.100000000000000000e+01, 4.326154000000000451e+03, 4.291282000000000153e+03, 4.132307999999999993e+03, 4.183077000000000226e+03, 4.291282000000000153e+03, 1.000000000000000000e+00, 0.000000000000000000e+00, 1.000000000000000000e+02
7.200000000000000000e+01, 4.332307999999999993e+03, 4.291282000000000153e+03, 4.134872000000000298e+03, 4.193332999999999629e+03, 4.305640999999999622e+03, 1.000000000000000000e+00, 0.000000000000000000e+00, 1.000000000000000000e+02
7.300000000000000000e+01, 4.325127999999999702e+03, 4.281025999999999840e+03, 4.124614999999999782e+03, 4.179487000000000080e+03, 4.292307999999999993e+03, 1.000000000000000000e+00, 0.000000000000000000e+00, 1.000000000000000000e+02
7.400000000000000000e+01, 4.318974000000000160e+03, 4.272820999999999913e+03, 4.123077000000000226e+03, 4.167179000000000087e+03, 4.274872000000000298e+03, 1.000000000000000000e+00, 0.000000000000000000e+00, 1.000000000000000000e+02
7.500000000000000000e+01, 4.326154000000000451e+03, 4.281025999999999840e+03, 4.137435999999999694e+03, 4.182564000000000306e+03, 4.287179000000000087e+03, 1.000000000000000000e+00, 0.000000000000000000e+00, 1.000000000000000000e+02
7.600000000000000000e+01, 4.330769000000000233e+03, 4.283077000000000226e+03, 4.148204999999999927e+03, 4.197948999999999614e+03, 4.297435999999999694e+03, 1.000000000000000000e+00, 0.000000000000000000e+00, 1.000000000000000000e+02
7.700000000000000000e+01, 4.323590000000000146e+03, 4.272820999999999913e+03, 4.149230999999999767e+03, 4.190256000000000313e+03, 4.294359000000000378e+03, 1.000000000000000000e+00, 0.000000000000000000e+00, 1.000000000000000000e+02
7.800000000000000000e+01, 4.328204999999999927e+03, 4.283077000000000226e+03, 4.153845999999999549e+03, 4.177435999999999694e+03, 4.309743999999999687e+03, 1.000000000000000000e+00, 0.000000000000000000e+00, 1.000000000000000000e+02
7.900000000000000000e+01, 4.345640999999999622e+03, 4.299487000000000080e+03, 4.149743999999999687e+03, 4.183077000000000226e+03, 4.326154000000000451e+03, 1.000000000000000000e+00, 0.000000000000000000e+00, 1.000000000000000000e+02
8.000000000000000000e+01, 4.348204999999999927e+03, 4.285127999999999702e+03, 4.132820999999999913e+03, 4.187179000000000087e+03, 4.313845999999999549e+03, 1.000000000000000000e+00, 0.000000000000000000e+00, 1.000000000000000000e+02
8.100000000000000000e+01, 4.342051000000000386e+03, 4.274872000000000298e+03, 4.126667000000000371e+03, 4.173332999999999629e+03, 4.302051000000000386e+03, 1.000000000000000000e+00, 0.000000000000000000e+00, 1.000000000000000000e+02
8.200000000000000000e+01, 4.349230999999999767e+03, 4.289230999999999767e+03, 4.137948999999999614e+03, 4.168717999999999847e+03, 4.313845999999999549e+03, 1.000000000000000000e+00, 0.000000000000000000e+00, 1.000000000000000000e+02
8.300000000000000000e+01, 4.361025999999999840e+03, 4.287179000000000087e+03, 4.144103000000000065e+03, 4.186154000000000451e+03, 4.317948999999999614e+03, 1.000000000000000000e+00, 0.000000000000000000e+00, 1.000000000000000000e+02
8.400000000000000000e+01, 4.362051000000000386e+03, 4.274872000000000298e+03, 4.131282000000000153e+03, 4.186667000000000371e+03, 4.301537999999999556e+03, 1.000000000000000000e+00, 0.000000000000000000e+00, 1.000000000000000000e+02
8.500000000000000000e+01, 4.362564000000000306e+03, 4.276922999999999774e+03, 4.126667000000000371e+03, 4.175385000000000218e+03, 4.300000000000000000e+03, 1.000000000000000000e+00, 0.000000000000000000e+00, 1.000000000000000000e+02
8.600000000000000000e+01, 4.356409999999999854e+03, 4.283077000000000226e+03, 4.120000000000000000e+03, 4.176409999999999854e+03, 4.304614999999999782e+03, 1.000000000000000000e+00, 0.000000000000000000e+00, 1.000000000000000000e+02
8.700000000000000000e+01, 4.344103000000000065e+03, 4.278974000000000160e+03, 4.098974000000000160e+03, 4.180000000000000000e+03, 4.297948999999999614e+03, 1.000000000000000000e+00, 0.000000000000000000e+00, 1.000000000000000000e+02
8.800000000000000000e+01, 4.345127999999999702e+03, 4.276922999999999774e+03, 4.103077000000000226e+03, 4.183077000000000226e+03, 4.308717999999999847e+03, 1.000000000000000000e+00, 0.000000000000000000e+00, 1.000000000000000000e+02
8.900000000000000000e+01, 4.348717999999999847e+03, 4.283077000000000226e+03, 4.128204999999999927e+03, 4.186667000000000371e+03, 4.327692000000000007e+03, 1.000000000000000000e+00, 0.000000000000000000e+00, 1.000000000000000000e+02
9.000000000000000000e+01, 4.354359000000000378e+03, 4.293332999999999629e+03, 4.142051000000000386e+03, 4.187179000000000087e+03, 4.334359000000000378e+03, 1.000000000000000000e+00, 0.000000000000000000e+00, 1.000000000000000000e+02
9.100000000000000000e+01, 4.363077000000000226e+03, 4.287179000000000087e+03, 4.147692000000000007e+03, 4.188204999999999927e+03, 4.336409999999999854e+03, 1.000000000000000000e+00, 0.000000000000000000e+00, 1.000000000000000000e+02
9.200000000000000000e+01, 4.364614999999999782e+03, 4.272820999999999913e+03, 4.150256000000000313e+03, 4.188204999999999927e+03, 4.338974000000000160e+03, 1.000000000000000000e+00, 0.000000000000000000e+00, 1.000000000000000000e+02
9.300000000000000000e+01, 4.360512999999999920e+03, 4.272820999999999913e+03, 4.141025999999999840e+03, 4.184614999999999782e+03, 4.334359000000000378e+03, 1.000000000000000000e+00, 0.000000000000000000e+00, 1.000000000000000000e+02
9.400000000000000000e+01, 4.357435999999999694e+03, 4.283077000000000226e+03, 4.133332999999999629e+03, 4.185640999999999622e+03, 4.325640999999999622e+03, 1.000000000000000000e+00, 0.000000000000000000e+00, 1.000000000000000000e+02
9.500000000000000000e+01, 4.360000000000000000e+03, 4.278974000000000160e+03, 4.138974000000000160e+03, 4.185127999999999702e+03, 4.333845999999999549e+03, 1.000000000000000000e+00, 0.000000000000000000e+00, 1.000000000000000000e+02
9.600000000000000000e+01, 4.369230999999999767e+03, 4.274872000000000298e+03, 4.142051000000000386e+03, 4.181025999999999840e+03, 4.341025999999999840e+03, 1.000000000000000000e+00, 0.000000000000000000e+00, 1.000000000000000000e+02
9.700000000000000000e+01, 4.374359000000000378e+03, 4.281025999999999840e+03, 4.137435999999999694e+03, 4.186154000000000451e+03, 4.330769000000000233e+03, 1.000000000000000000e+00, 0.000000000000000000e+00, 1.000000000000000000e+02
9.800000000000000000e+01, 4.368717999999999847e+03, 4.278974000000000160e+03, 4.136409999999999854e+03, 4.188204999999999927e+03, 4.325640999999999622e+03, 1.000000000000000000e+00, 0.000000000000000000e+00, 1.000000000000000000e+02
9.900000000000000000e+01, 4.364614999999999782e+03, 4.266667000000000371e+03, 4.133845999999999549e+03, 4.185127999999999702e+03, 4.329230999999999767e+03, 1.000000000000000000e+00, 0.000000000000000000e+00, 1.000000000000000000e+02
1.000000000000000000e+02, 4.362051000000000386e+03, 4.264614999999999782e+03, 4.129230999999999767e+03, 4.182564000000000306e+03, 4.321025999999999840e+03, 1.000000000000000000e+00, 0.000000000000000000e+00, 1.000000000000000000e+02
1.010000000000000000e+02, 4.355385000000000218e+03, 4.270769000000000233e+03, 4.128717999999999847e+03, 4.176409999999999854e+03, 4.309230999999999767e+03, 1.000000000000000000e+00, 0.000000000000000000e+00, 1.000000000000000000e+02
1.020000000000000000e+02, 4.349743999999999687e+03, 4.268717999999999847e+03, 4.127692000000000007e+03, 4.171282000000000153e+03, 4.309230999999999767e+03, 1.000000000000000000e+00, 0.000000000000000000e+00, 1.000000000000000000e+02
1.030000000000000000e+02, 4.357435999999999694e+03, 4.264614999999999782e+03, 4.131282000000000153e+03, 4.180512999999999920e+03, 4.316922999999999774e+03, 1.000000000000000000e+00, 0.000000000000000000e+00, 1.000000000000000000e+02
1.040000000000000000e+02, 4.376409999999999854e+03, 4.270769000000000233e+03, 4.135385000000000218e+03, 4.194359000000000378e+03, 4.322564000000000306e+03, 1.000000000000000000e+00, 0.000000000000000000e+00, 1.000000000000000000e+02
1.050000000000000000e+02, 4.388204999999999927e+03, 4.281025999999999840e+03, 4.128717999999999847e+03, 4.194359000000000378e+03, 4.325640999999999622e+03, 1.000000000000000000e+00, 0.000000000000000000e+00, 1.000000000000000000e+02
1.060000000000000000e+02, 4.389743999999999687e+03, 4.276922999999999774e+03, 4.123590000000000146e+03, 4.181537999999999556e+03, 4.325127999999999702e+03, 1.000000000000000000e+00, 0.000000000000000000e+00, 1.000000000000000000e+02
1.070000000000000000e+02, 4.388204999999999927e+03, 4.276922999999999774e+03, 4.137948999999999614e+03, 4.177435999999999694e+03, 4.326154000000000451e+03, 1.000000000000000000e+00, 0.000000000000000000e+00, 1.000000000000000000e+02
1.080000000000000000e+02, 4.388717999999999847e+03, 4.287179000000000087e+03, 4.143077000000000226e+03, 4.185640999999999622e+03, 4.328204999999999927e+03, 1.000000000000000000e+00, 0.000000000000000000e+00, 1.000000000000000000e+02
1.090000000000000000e+02, 4.385127999999999702e+03, 4.285127999999999702e+03, 4.132820999999999913e+03, 4.187179000000000087e+03, 4.326667000000000371e+03, 1.000000000000000000e+00, 0.000000000000000000e+00, 1.000000000000000000e+02
1.100000000000000000e+02, 4.378462000000000444e+03, 4.274872000000000298e+03, 4.136922999999999774e+03, 4.181537999999999556e+03, 4.329230999999999767e+03, 1.000000000000000000e+00, 0.000000000000000000e+00, 1.000000000000000000e+02
1.110000000000000000e+02, 4.369230999999999767e+03, 4.276922999999999774e+03, 4.134872000000000298e+03, 4.180512999999999920e+03, 4.325127999999999702e+03, 1.000000000000000000e+00, 0.000000000000000000e+00, 1.000000000000000000e+02
1.120000000000000000e+02, 4.362051000000000386e+03, 4.281025999999999840e+03, 4.121025999999999840e+03, 4.185640999999999622e+03, 4.316922999999999774e+03, 1.000000000000000000e+00, 0.000000000000000000e+00, 1.000000000000000000e+02
1.130000000000000000e+02, 4.370769000000000233e+03, 4.276922999999999774e+03, 4.121025999999999840e+03, 4.183590000000000146e+03, 4.327692000000000007e+03, 1.000000000000000000e+00, 0.000000000000000000e+00, 1.000000000000000000e+02
1.140000000000000000e+02, 4.387692000000000007e+03, 4.266667000000000371e+03, 4.125127999999999702e+03, 4.174359000000000378e+03, 4.341537999999999556e+03, 1.000000000000000000e+00, 0.000000000000000000e+00, 1.000000000000000000e+02
1.150000000000000000e+02, 4.406667000000000371e+03, 4.264614999999999782e+03, 4.121025999999999840e+03, 4.180000000000000000e+03, 4.350256000000000313e+03, 1.000000000000000000e+00, 0.000000000000000000e+00, 1.000000000000000000e+02
1.160000000000000000e+02, 4.432307999999999993e+03, 4.274872000000000298e+03, 4.127179000000000087e+03, 4.188717999999999847e+03, 4.369743999999999687e+03, 1.000000000000000000e+00, 0.000000000000000000e+00, 1.000000000000000000e+02
1.170000000000000000e+02, 4.458974000000000160e+03, 4.281025999999999840e+03, 4.140000000000000000e+03, 4.186154000000000451e+03, 4.399487000000000080e+03, 1.000000000000000000e+00, 0.000000000000000000e+00, 1.000000000000000000e+02
1.180000000000000000e+02, 4.492820999999999913e+03, 4.274872000000000298e+03, 4.134872000000000298e+03, 4.185640999999999622e+03, 4.422564000000000306e+03, 1.000000000000000000e+00, 0.000000000000000000e+00, 1.000000000000000000e+02
1.190000000000000000e+02, 4.535385000000000218e+03, 4.276922999999999774e+03, 4.128204999999999927e+03, 4.189743999999999687e+03, 4.435896999999999935e+03, 1.000000000000000000e+00, 0.000000000000000000e+00, 1.000000000000000000e+02
1.200000000000000000e+02, 4.562564000000000306e+03, 4.287179000000000087e+03, 4.134872000000000298e+03, 4.187179000000000087e+03, 4.448204999999999927e+03, 1.000000000000000000e+00, 0.000000000000000000e+00, 1.000000000000000000e+02
1.210000000000000000e+02, 4.575385000000000218e+03, 4.297435999999999694e+03, 4.142051000000000386e+03, 4.186667000000000371e+03, 4.470256000000000313e+03, 1.000000000000000000e+00, 0.000000000000000000e+00, 1.000000000000000000e+02
1.220000000000000000e+02, 4.593332999999999629e+03, 4.293332999999999629e+03, 4.141025999999999840e+03, 4.187692000000000007e+03, 4.486154000000000451e+03, 1.000000000000000000e+00, 0.000000000000000000e+00, 1.000000000000000000e+02
1.230000000000000000e+02, 4.598974000000000160e+03, 4.278974000000000160e+03, 4.136922999999999774e+03, 4.184614999999999782e+03, 4.476922999999999774e+03, 1.000000000000000000e+00, 0.000000000000000000e+00, 1.000000000000000000e+02
1.240000000000000000e+02, 4.582564000000000306e+03, 4.281025999999999840e+03, 4.136922999999999774e+03, 4.186154000000000451e+03, 4.460512999999999920e+03, 1.000000000000000000e+00, 0.000000000000000000e+00, 1.000000000000000000e+02
1.250000000000000000e+02, 4.561025999999999840e+03, 4.297435999999999694e+03, 4.135385000000000218e+03, 4.190769000000000233e+03, 4.453845999999999549e+03, 1.000000000000000000e+00, 0.000000000000000000e+00, 1.000000000000000000e+02
1.260000000000000000e+02, 4.534359000000000378e+03, 4.297435999999999694e+03, 4.126154000000000451e+03, 4.187692000000000007e+03, 4.443077000000000226e+03, 1.000000000000000000e+00, 0.000000000000000000e+00, 1.000000000000000000e+02
1.270000000000000000e+02, 4.503590000000000146e+03, 4.285127999999999702e+03, 4.119487000000000080e+03, 4.174872000000000298e+03, 4.422564000000000306e+03, 1.000000000000000000e+00, 0.000000000000000000e+00, 1.000000000000000000e+02
0.000000000000000000e+00, 4.482051000000000386e+03, 4.285127999999999702e+03, 4.121537999999999556e+03, 4.164614999999999782e+03, 4.405640999999999622e+03, 1.000000000000000000e+00, 0.000000000000000000e+00, 1.000000000000000000e+02
1.000000000000000000e+00, 4.460000000000000000e+03, 4.295385000000000218e+03, 4.122051000000000386e+03, 4.166154000000000451e+03, 4.393332999999999629e+03, 1.000000000000000000e+00, 0.000000000000000000e+00, 1.000000000000000000e+02
2.000000000000000000e+00, 4.441025999999999840e+03, 4.293332999999999629e+03, 4.127179000000000087e+03, 4.174359000000000378e+03, 4.389230999999999767e+03, 1.000000000000000000e+00, 0.000000000000000000e+00, 1.000000000000000000e+02
3.000000000000000000e+00, 4.427179000000000087e+03, 4.295385000000000218e+03, 4.137948999999999614e+03, 4.183077000000000226e+03, 4.393332999999999629e+03, 1.000000000000000000e+00, 0.000000000000000000e+00, 1.000000000000000000e+02
4.000000000000000000e+00, 4.399487000000000080e+03, 4.299487000000000080e+03, 4.141537999999999556e+03, 4.185640999999999622e+03, 4.384103000000000065e+03, 1.000000000000000000e+00, 0.000000000000000000e+00, 1.000000000000000000e+02
5.000000000000000000e+00, 4.376409999999999854e+03, 4.299487000000000080e+03, 4.135385000000000218e+03, 4.175896999999999935e+03, 4.370769000000000233e+03, 1.000000000000000000e+00, 0.000000000000000000e+00, 1.000000000000000000e+02
6.000000000000000000e+00, 4.370769000000000233e+03, 4.295385000000000218e+03, 4.126154000000000451e+03, 4.170769000000000233e+03, 4.371795000000000073e+03, 1.000000000000000000e+00, 0.000000000000000000e+00, 1.000000000000000000e+02
7.000000000000000000e+00, 4.359487000000000080e+03, 4.295385000000000218e+03, 4.120000000000000000e+03, 4.180512999999999920e+03, 4.370256000000000313e+03, 1.000000000000000000e+00, 0.000000000000000000e+00, 1.000000000000000000e+02
8.000000000000000000e+00, 4.343077000000000226e+03, 4.291282000000000153e+03, 4.124103000000000065e+03, 4.187179000000000087e+03, 4.358462000000000444e+03, 1.000000000000000000e+00, 0.000000000000000000e+00, 1.000000000000000000e+02
9.000000000000000000e+00, 4.334872000000000298e+03, 4.291282000000000153e+03, 4.134872000000000298e+03, 4.182564000000000306e+03, 4.347692000000000007e+03, 1.000000000000000000e+00, 0.000000000000000000e+00, 1.000000000000000000e+02
1.000000000000000000e+01, 4.327179000000000087e+03, 4.293332999999999629e+03, 4.143077000000000226e+03, 4.175896999999999935e+03, 4.346667000000000371e+03, 1.000000000000000000e+00, 0.000000000000000000e+00, 1.000000000000000000e+02
1.100000000000000000e+01, 4.314359000000000378e+03, 4.287179000000000087e+03, 4.135385000000000218e+03, 4.170256000000000313e+03, 4.342564000000000306e+03, 1.000000000000000000e+00, 0.000000000000000000e+00, 1.000000000000000000e+02
1.200000000000000000e+01, 4.304103000000000065e+03, 4.293332999999999629e+03, 4.122051000000000386e+03, 4.169743999999999687e+03, 4.338974000000000160e+03, 1.000000000000000000e+00, 0.000000000000000000e+00, 1.000000000000000000e+02
1.300000000000000000e+01, 4.298974000000000160e+03, 4.309743999999999687e+03, 4.130256000000000313e+03, 4.171282000000000153e+03, 4.350256000000000313e+03, 1.000000000000000000e+00, 0.000000000000000000e+00, 1.000000000000000000e+02
1.400000000000000000e+01, 4.298462000000000444e+03, 4.301537999999999556e+03, 4.139487000000000080e+03, 4.171282000000000153e+03, 4.349230999999999767e+03, 1.000000000000000000e+00, 0.000000000000000000e+00, 1.000000000000000000e+02
1.500000000000000000e+01, 4.301025999999999840e+03, 4.291282000000000153e+03, 4.131282000000000153e+03, 4.182564000000000306e+03, 4.335385000000000218e+03, 1.000000000000000000e+00, 0.000000000000000000e+00, 1.000000000000000000e+02
1.600000000000000000e+01, 4.298974000000000160e+03, 4.297435999999999694e+03, 4.130256000000000313e+03, 4.188717999999999847e+03, 4.327179000000000087e+03, 1.000000000000000000e+00, 0.000000000000000000e+00, 1.000000000000000000e+02
1.700000000000000000e+01, 4.289230999999999767e+03, 4.291282000000000153e+03, 4.132820999999999913e+03, 4.172307999999999993e+03, 4.314359000000000378e+03, 1.000000000000000000e+00, 0.000000000000000000e+00, 1.000000000000000000e+02
1.800000000000000000e+01, 4.280000000000000000e+03, 4.278974000000000160e+03, 4.125127999999999702e+03, 4.169230999999999767e+03, 4.307692000000000007e+03, 1.000000000000000000e+00, 0.000000000000000000e+00, 1.000000000000000000e+02
1.900000000000000000e+01, 4.276922999999999774e+03, 4.287179000000000087e+03, 4.121025999999999840e+03, 4.185640999999999622e+03, 4.315385000000000218e+03, 1.000000000000000000e+00, 0.000000000000000000e+00, 1.000000000000000000e+02
2.000000000000000000e+01, 4.276409999999999854e+03, 4.297435999999999694e+03, 4.121537999999999556e+03, 4.184614999999999782e+03, 4.318974000000000160e+03, 1.000000000000000000e+00, 0.000000000000000000e+00, 1.000000000000000000e+02
2.100000000000000000e+01, 4.275385000000000218e+03, 4.295385000000000218e+03, 4.123077000000000226e+03, 4.173845999999999549e+03, 4.312307999999999993e+03, 1.000000000000000000e+00, 0.000000000000000000e+00, 1.000000000000000000e+02
2.200000000000000000e+01, 4.273845999999999549e+03, 4.293332999999999629e+03, 4.131795000000000073e+03, 4.179487000000000080e+03, 4.309743999999999687e+03, 1.000000000000000000e+00, 0.000000000000000000e+00, 1.000000000000000000e+02
2.300000000000000000e+01, 4.273845999999999549e+03, 4.293332999999999629e+03, 4.140512999999999920e+03, 4.182564000000000306e+03, 4.309230999999999767e+03, 1.000000000000000000e+00, 0.000000000000000000e+00, 1.000000000000000000e+02
2.400000000000000000e+01, 4.280512999999999920e+03, 4.291282000000000153e+03, 4.144614999999999782e+03, 4.177948999999999614e+03, 4.302564000000000306e+03, 1.000000000000000000e+00, 0.000000000000000000e+00, 1.000000000000000000e+02
2.500000000000000000e+01, 4.292820999999999913e+03, 4.293332999999999629e+03, 4.147179000000000087e+03, 4.184614999999999782e+03, 4.300000000000000000e+03, 1.000000000000000000e+00, 0.000000000000000000e+00, 1.000000000000000000e+02
2.600000000000000000e+01, 4.298974000000000160e+03, 4.289230999999999767e+03, 4.137948999999999614e+03, 4.187692000000000007e+03, 4.304103000000000065e+03, 1.000000000000000000e+00, 0.000000000000000000e+00, 1.000000000000000000e+02
2.700000000000000000e+01, 4.300512999999999920e+03, 4.283077000000000226e+03, 4.130769000000000233e+03, 4.179487000000000080e+03, 4.311795000000000073e+03, 1.000000000000000000e+00, 0.000000000000000000e+00, 1.000000000000000000e+02
2.800000000000000000e+01, 4.303077000000000226e+03, 4.297435999999999694e+03, 4.142564000000000306e+03, 4.186667000000000371e+03, 4.316409999999999854e+03, 1.000000000000000000e+00, 0.000000000000000000e+00, 1.000000000000000000e+02
2.900000000000000000e+01, 4.301025999999999840e+03, 4.303590000000000146e+03, 4.147692000000000007e+03, 4.202564000000000306e+03, 4.309743999999999687e+03, 1.000000000000000000e+00, 0.000000000000000000e+00, 1.000000000000000000e+02
3.000000000000000000e+01, 4.291795000000000073e+03, 4.285127999999999702e+03, 4.137435999999999694e+03, 4.190256000000000313e+03, 4.306667000000000371e+03, 1.000000000000000000e+00, 0.000000000000000000e+00, 1.000000000000000000e+02
3.100000000000000000e+01, 4.285640999999999622e+03, 4.272820999999999913e+03, 4.135385000000000218e+03, 4.171795000000000073e+03, 4.316409999999999854e+03, 1.000000000000000000e+00, 0.000000000000000000e+00, 1.000000000000000000e+02
3.200000000000000000e+01, 4.280512999999999920e+03, 4.278974000000000160e+03, 4.135385000000000218e+03, 4.179487000000000080e+03, 4.317948999999999614e+03, 1.000000000000000000e+00, 0.000000000000000000e+00, 1.000000000000000000e+02
3.300000000000000000e+01, 4.281025999999999840e+03, 4.287179000000000087e+03, 4.124614999999999782e+03, 4.183590000000000146e+03, 4.309230999999999767e+03, 1.000000000000000000e+00, 0.000000000000000000e+00, 1.000000000000000000e+02
3.400000000000000000e+01, 4.288717999999999847e+03, 4.285127999999999702e+03, 4.121025999999999840e+03, 4.168204999999999927e+03, 4.301537999999999556e+03, 1.000000000000000000e+00, 0.000000000000000000e+00, 1.000000000000000000e+02
3.500000000000000000e+01, 4.288204999999999927e+03, 4.278974000000000160e+03, 4.133332999999999629e+03, 4.166667000000000371e+03, 4.294872000000000298e+03, 1.000000000000000000e+00, 0.000000000000000000e+00, 1.000000000000000000e+02
3.600000000000000000e+01, 4.286154000000000451e+03, 4.276922999999999774e+03, 4.138974000000000160e+03, 4.183590000000000146e+03, 4.297948999999999614e+03, 1.000000000000000000e+00, 0.000000000000000000e+00, 1.000000000000000000e+02
3.700000000000000000e+01, 4.294359000000000378e+03, 4.291282000000000153e+03, 4.137435999999999694e+03, 4.190769000000000233e+03, 4.306667000000000371e+03, 1.000000000000000000e+00, 0.000000000000000000e+00, 1.000000000000000000e+02
3.800000000000000000e+01, 4.296409999999999854e+03, 4.293332999999999629e+03, 4.138462000000000444e+03, 4.183590000000000146e+03, 4.304614999999999782e+03, 1.000000000000000000e+00, 0.000000000000000000e+00, 1.000000000000000000e+02
3.900000000000000000e+01, 4.284614999999999782e+03, 4.278974000000000160e+03, 4.134359000000000378e+03, 4.172307999999999993e+03, 4.296409999999999854e+03, 1.000000000000000000e+00, 0.000000000000000000e+00, 1.000000000000000000e+02
4.000000000000000000e+01, 4.284103000000000065e+03, 4.274872000000000298e+03, 4.135896999999999935e+03, 4.174359000000000378e+03, 4.301537999999999556e+03, 1.000000000000000000e+00, 0.000000000000000000e+00, 1.000000000000000000e+02
4.100000000000000000e+01, 4.304614999999999782e+03, 4.281025999999999840e+03, 4.147692000000000007e+03, 4.191282000000000153e+03, 4.322051000000000386e+03, 1.000000000000000000e+00, 0.000000000000000000e+00, 1.000000000000000000e+02
4.200000000000000000e+01, 4.309743999999999687e+03, 4.281025999999999840e+03, 4.138974000000000160e+03, 4.195385000000000218e+03, 4.321537999999999556e+03, 1.000000000000000000e+00, 0.000000000000000000e+00, 1.000000000000000000e+02
4.300000000000000000e+01, 4.302564000000000306e+03, 4.276922999999999774e+03, 4.117435999999999694e+03, 4.186154000000000451e+03, 4.306154000000000451e+03, 1.000000000000000000e+00, 0.000000000000000000e+00, 1.000000000000000000e+02
4.400000000000000000e+01, 4.308204999999999927e+03, 4.274872000000000298e+03, 4.118974000000000160e+03, 4.180000000000000000e+03, 4.307179000000000087e+03, 1.000000000000000000e+00, 0.000000000000000000e+00, 1.000000000000000000e+02
4.500000000000000000e+01, 4.308717999999999847e+03, 4.272820999999999913e+03, 4.127692000000000007e+03, 4.176409999999999854e+03, 4.316409999999999854e+03, 1.000000000000000000e+00, 0.000000000000000000e+00, 1.000000000000000000e+02
4.600000000000000000e+01, 4.301025999999999840e+03, 4.276922999999999774e+03, 4.122051000000000386e+03, 4.173845999999999549e+03, 4.316922999999999774e+03, 1.000000000000000000e+00, 0.000000000000000000e+00, 1.000000000000000000e+02
4.700000000000000000e+01, 4.302564000000000306e+03, 4.281025999999999840e+03, 4.116922999999999774e+03, 4.184614999999999782e+03, 4.311795000000000073e+03, 1.000000000000000000e+00, 0.000000000000000000e+00, 1.000000000000000000e+02
4.800000000000000000e+01, 4.307179000000000087e+03, 4.278974000000000160e+03, 4.125127999999999702e+03, 4.197435999999999694e+03, 4.311282000000000153e+03, 1.000000000000000000e+00, 0.000000000000000000e+00, 1.000000000000000000e+02
4.900000000000000000e+01, 4.301537999999999556e+03, 4.278974000000000160e+03, 4.128204999999999927e+03, 4.190769000000000233e+03, 4.307179000000000087e+03, 1.000000000000000000e+00, 0.000000000000000000e+00, 1.000000000000000000e+02
5.000000000000000000e+01, 4.302564000000000306e+03, 4.281025999999999840e+03, 4.126154000000000451e+03, 4.182564000000000306e+03, 4.302051000000000386e+03, 1.000000000000000000e+00, 0.000000000000000000e+00, 1.000000000000000000e+02
5.100000000000000000e+01, 4.316922999999999774e+03, 4.281025999999999840e+03, 4.134359000000000378e+03, 4.189743999999999687e+03, 4.309743999999999687e+03, 1.000000000000000000e+00, 0.000000000000000000e+00, 1.000000000000000000e+02
5.200000000000000000e+01, 4.317435999999999694e+03, 4.276922999999999774e+03, 4.138974000000000160e+03, 4.191795000000000073e+03, 4.314872000000000298e+03, 1.000000000000000000e+00, 0.000000000000000000e+00, 1.000000000000000000e+02
5.300000000000000000e+01, 4.298462000000000444e+03, 4.272820999999999913e+03, 4.120512999999999920e+03, 4.184614999999999782e+03, 4.305127999999999702e+03, 1.000000000000000000e+00, 0.000000000000000000e+00, 1.000000000000000000e+02
5.400000000000000000e+01, 4.289743999999999687e+03, 4.264614999999999782e+03, 4.103590000000000146e+03, 4.184103000000000065e+03, 4.293845999999999549e+03, 1.000000000000000000e+00, 0.000000000000000000e+00, 1.000000000000000000e+02
5.500000000000000000e+01, 4.297948999999999614e+03, 4.252307999999999993e+03, 4.106667000000000371e+03, 4.187179000000000087e+03, 4.294359000000000378e+03, 1.000000000000000000e+00, 0.000000000000000000e+00, 1.000000000000000000e+02
5.600000000000000000e+01, 4.301537999999999556e+03, 4.246154000000000451e+03, 4.111795000000000073e+03, 4.181537999999999556e+03, 4.297435999999999694e+03, 1.000000000000000000e+00, 0.000000000000000000e+00, 1.000000000000000000e+02
5.700000000000000000e+01, 4.297435999999999694e+03, 4.256409999999999854e+03, 4.114359000000000378e+03, 4.180512999999999920e+03, 4.296409999999999854e+03, 1.000000000000000000e+00, 0.000000000000000000e+00, 1.000000000000000000e+02
5.800000000000000000e+01, 4.304614999999999782e+03, 4.260512999999999920e+03, 4.120512999999999920e+03, 4.185127999999999702e+03, 4.303590000000000146e+03, 1.000000000000000000e+00, 0.000000000000000000e+00, 1.000000000000000000e+02
5.900000000000000000e+01, 4.304614999999999782e+03, 4.260512999999999920e+03, 4.121537999999999556e+03, 4.185127999999999702e+03, 4.302564000000000306e+03, 1.000000000000000000e+00, 0.000000000000000000e+00, 1.000000000000000000e+02
6.000000000000000000e+01, 4.291282000000000153e+03, 4.260512999999999920e+03, 4.127179000000000087e+03, 4.183077000000000226e+03, 4.288717999999999847e+03, 1.000000000000000000e+00, 0.000000000000000000e+00, 1.000000000000000000e+02
6.100000000000000000e+01, 4.300000000000000000e+03, 4.262564000000000306e+03, 4.139487000000000080e+03, 4.191282000000000153e+03, 4.292307999999999993e+03, 1.000000000000000000e+00, 0.000000000000000000e+00, 1.000000000000000000e+02
6.200000000000000000e+01, 4.323077000000000226e+03, 4.270769000000000233e+03, 4.145640999999999622e+03, 4.202564000000000306e+03, 4.307179000000000087e+03, 1.000000000000000000e+00, 0.000000000000000000e+00, 1.000000000000000000e+02
6.300000000000000000e+01, 4.328204999999999927e+03, 4.272820999999999913e+03, 4.140512999999999920e+03, 4.199487000000000080e+03, 4.304614999999999782e+03, 1.000000000000000000e+00, 0.000000000000000000e+00, 1.000000000000000000e+02
6.400000000000000000e+01, 4.325640999999999622e+03, 4.264614999999999782e+03, 4.132820999999999913e+03, 4.188717999999999847e+03, 4.293332999999999629e+03, 1.000000000000000000e+00, 0.000000000000000000e+00, 1.000000000000000000e+02
6.500000000000000000e+01, 4.333845999999999549e+03, 4.264614999999999782e+03, 4.134872000000000298e+03, 4.187179000000000087e+03, 4.293845999999999549e+03, 1.000000000000000000e+00, 0.000000000000000000e+00, 1.000000000000000000e+02
6.600000000000000000e+01, 4.335896999999999935e+03, 4.266667000000000371e+03, 4.129230999999999767e+03, 4.190256000000000313e+03, 4.293332999999999629e+03, 1.000000000000000000e+00, 0.000000000000000000e+00, 1.000000000000000000e+02
6.700000000000000000e+01, 4.323077000000000226e+03, 4.258462000000000444e+03, 4.110256000000000313e+03, 4.182051000000000386e+03, 4.278974000000000160e+03, 1.000000000000000000e+00, 0.000000000000000000e+00, 1.000000000000000000e+02
6.800000000000000000e+01, 4.311795000000000073e+03, 4.254359000000000378e+03, 4.109230999999999767e+03, 4.169743999999999687e+03, 4.273845999999999549e+03, 1.000000000000000000e+00, 0.000000000000000000e+00, 1.000000000000000000e+02
6.900000000000000000e+01, 4.306667000000000371e+03, 4.258462000000000444e+03, 4.134872000000000298e+03, 4.175896999999999935e+03, 4.281537999999999556e+03, 1.000000000000000000e+00, 0.000000000000000000e+00, 1.000000000000000000e+02
7.000000000000000000e+01, 4.305127999999999702e+03, 4.260512999999999920e+03, 4.145640999999999622e+03, 4.193332999999999629e+03, 4.284103000000000065e+03, 1.000000000000000000e+00, 0.000000000000000000e+00, 1.000000000000000000e+02
7.100000000000000000e+01, 4.306154000000000451e+03, 4.264614999999999782e+03, 4.141025999999999840e+03, 4.200000000000000000e+03, 4.284614999999999782e+03, 1.000000000000000000e+00, 0.000000000000000000e+00, 1.000000000000000000e+02
7.200000000000000000e+01, 4.297435999999999694e+03, 4.262564000000000306e+03, 4.148204999999999927e+03, 4.198462000000000444e+03, 4.282051000000000386e+03, 1.000000000000000000e+00, 0.000000000000000000e+00, 1.000000000000000000e+02
7.300000000000000000e+01, 4.281537999999999556e+03, 4.252307999999999993e+03, 4.152820999999999913e+03, 4.196409999999999854e+03, 4.267692000000000007e+03, 1.000000000000000000e+00, 0.000000000000000000e+00, 1.000000000000000000e+02
7.400000000000000000e+01, 4.280512999999999920e+03, 4.254359000000000378e+03, 4.144614999999999782e+03, 4.195896999999999935e+03, 4.260512999999999920e+03, 1.000000000000000000e+00, 0.000000000000000000e+00, 1.000000000000000000e+02
7.500000000000000000e+01, 4.278462000000000444e+03, 4.246154000000000451e+03, 4.123077000000000226e+03, 4.186154000000000451e+03, 4.250769000000000233e+03, 1.000000000000000000e+00, 0.000000000000000000e+00, 1.000000000000000000e+02
7.600000000000000000e+01, 4.257435999999999694e+03, 4.227692000000000007e+03, 4.098462000000000444e+03, 4.163590000000000146e+03, 4.231795000000000073e+03, 1.000000000000000000e+00, 0.000000000000000000e+00, 1.000000000000000000e+02
7.700000000000000000e+01, 4.263077000000000226e+03, 4.237948999999999614e+03, 4.100512999999999920e+03, 4.167692000000000007e+03, 4.238462000000000444e+03, 1.000000000000000000e+00, 0.000000000000000000e+00, 1.000000000000000000e+02
7.800000000000000000e+01, 4.293845999999999549e+03, 4.260512999999999920e+03, 4.117435999999999694e+03, 4.197948999999999614e+03, 4.261537999999999556e+03, 1.000000000000000000e+00, 0.000000000000000000e+00, 1.000000000000000000e+02
7.900000000000000000e+01, 4.289743999999999687e+03, 4.248204999999999927e+03, 4.113332999999999629e+03, 4.197948999999999614e+03, 4.260512999999999920e+03, 1.000000000000000000e+00, 0.000000000000000000e+00, 1.000000000000000000e+02
8.000000000000000000e+01, 4.258974000000000160e+03, 4.233845999999999549e+03, 4.099487000000000080e+03, 4.169230999999999767e+03, 4.237948999999999614e+03, 1.000000000000000000e+00, 0.000000000000000000e+00, 1.000000000000000000e+02
8.100000000000000000e+01, 4.249743999999999687e+03, 4.233845999999999549e+03, 4.100512999999999920e+03, 4.156409999999999854e+03, 4.219487000000000080e+03, 1.000000000000000000e+00, 0.000000000000000000e+00, 1.000000000000000000e+02
8.200000000000000000e+01, 4.261025999999999840e+03, 4.231795000000000073e+03, 4.114359000000000378e+03, 4.169743999999999687e+03, 4.216409999999999854e+03, 1.000000000000000000e+00, 0.000000000000000000e+00, 1.000000000000000000e+02
8.300000000000000000e+01, 4.269230999999999767e+03, 4.252307999999999993e+03, 4.137948999999999614e+03, 4.193332999999999629e+03, 4.231795000000000073e+03, 1.000000000000000000e+00, 0.000000000000000000e+00, 1.000000000000000000e+02
8.400000000000000000e+01, 4.278974000000000160e+03, 4.283077000000000226e+03, 4.156922999999999774e+03, 4.205640999999999622e+03, 4.257948999999999614e+03, 1.000000000000000000e+00, 0.000000000000000000e+00, 1.000000000000000000e+02
8.500000000000000000e+01, 4.288717999999999847e+03, 4.276922999999999774e+03, 4.157948999999999614e+03, 4.205127999999999702e+03, 4.270769000000000233e+03, 1.000000000000000000e+00, 0.000000000000000000e+00, 1.000000000000000000e+02
8.600000000000000000e+01, 4.283077000000000226e+03, 4.258462000000000444e+03, 4.153332999999999629e+03, 4.200512999999999920e+03, 4.265640999999999622e+03, 1.000000000000000000e+00, 0.000000000000000000e+00, 1.000000000000000000e+02
8.700000000000000000e+01, 4.260000000000000000e+03, 4.262564000000000306e+03, 4.140512999999999920e+03, 4.179487000000000080e+03, 4.250769000000000233e+03, 1.000000000000000000e+00, 0.000000000000000000e+00, 1.000000000000000000e+02
8.800000000000000000e+01, 4.235896999999999935e+03, 4.266667000000000371e+03, 4.122564000000000306e+03, 4.161537999999999556e+03, 4.237948999999999614e+03, 1.000000000000000000e+00, 0.000000000000000000e+00, 1.000000000000000000e+02
8.900000000000000000e+01, 4.233845999999999549e+03, 4.260512999999999920e+03, 4.120512999999999920e+03, 4.176409999999999854e+03, 4.237948999999999614e+03, 1.000000000000000000e+00, 0.000000000000000000e+00, 1.000000000000000000e+02
9.000000000000000000e+01, 4.242051000000000386e+03, 4.258462000000000444e+03, 4.121025999999999840e+03, 4.186154000000000451e+03, 4.238974000000000160e+03, 1.000000000000000000e+00, 0.000000000000000000e+00, 1.000000000000000000e+02
9.100000000000000000e+01, 4.232820999999999913e+03, 4.262564000000000306e+03, 4.117435999999999694e+03, 4.172820999999999913e+03, 4.233845999999999549e+03, 1.000000000000000000e+00, 0.000000000000000000e+00, 1.000000000000000000e+02
9.200000000000000000e+01, 4.216922999999999774e+03, 4.262564000000000306e+03, 4.124614999999999782e+03, 4.167179000000000087e+03, 4.230256000000000313e+03, 1.000000000000000000e+00, 0.000000000000000000e+00, 1.000000000000000000e+02
9.300000000000000000e+01, 4.217435999999999694e+03, 4.260512999999999920e+03, 4.136922999999999774e+03, 4.169743999999999687e+03, 4.232307999999999993e+03, 1.000000000000000000e+00, 0.000000000000000000e+00, 1.000000000000000000e+02
9.400000000000000000e+01, 4.228717999999999847e+03, 4.264614999999999782e+03, 4.140512999999999920e+03, 4.180512999999999920e+03, 4.247179000000000087e+03, 1.000000000000000000e+00, 0.000000000000000000e+00, 1.000000000000000000e+02
9.500000000000000000e+01, 4.217948999999999614e+03, 4.268717999999999847e+03, 4.129230999999999767e+03, 4.190256000000000313e+03, 4.245640999999999622e+03, 1.000000000000000000e+00, 0.000000000000000000e+00, 1.000000000000000000e+02
9.600000000000000000e+01, 4.203077000000000226e+03, 4.262564000000000306e+03, 4.117435999999999694e+03, 4.182564000000000306e+03, 4.227692000000000007e+03, 1.000000000000000000e+00, 0.000000000000000000e+00, 1.000000000000000000e+02
9.700000000000000000e+01, 4.216409999999999854e+03, 4.260512999999999920e+03, 4.125640999999999622e+03, 4.177948999999999614e+03, 4.230256000000000313e+03, 1.000000000000000000e+00, 0.000000000000000000e+00, 1.000000000000000000e+02
9.800000000000000000e+01, 4.233845999999999549e+03, 4.266667000000000371e+03, 4.140512999999999920e+03, 4.190256000000000313e+03, 4.244103000000000065e+03, 1.000000000000000000e+00, 0.000000000000000000e+00, 1.000000000000000000e+02
9.900000000000000000e+01, 4.230256000000000313e+03, 4.268717999999999847e+03, 4.134359000000000378e+03, 4.190769000000000233e+03, 4.239487000000000080e+03, 1.000000000000000000e+00, 0.000000000000000000e+00, 1.000000000000000000e+02
1.000000000000000000e+02, 4.212307999999999993e+03, 4.260512999999999920e+03, 4.118974000000000160e+03, 4.169230999999999767e+03, 4.217435999999999694e+03, 1.000000000000000000e+00, 0.000000000000000000e+00, 1.000000000000000000e+02
1.010000000000000000e+02, 4.200512999999999920e+03, 4.256409999999999854e+03, 4.119487000000000080e+03, 4.164614999999999782e+03, 4.214359000000000378e+03, 1.000000000000000000e+00, 0.000000000000000000e+00, 1.000000000000000000e+02
1.020000000000000000e+02, 4.203077000000000226e+03, 4.260512999999999920e+03, 4.123590000000000146e+03, 4.181537999999999556e+03, 4.230256000000000313e+03, 1.000000000000000000e+00, 0.000000000000000000e+00, 1.000000000000000000e+02
1.030000000000000000e+02, 4.207692000000000007e+03, 4.258462000000000444e+03, 4.118974000000000160e+03, 4.188204999999999927e+03, 4.232820999999999913e+03, 1.000000000000000000e+00, 0.000000000000000000e+00, 1.000000000000000000e+02
1.040000000000000000e+02, 4.206667000000000371e+03, 4.250256000000000313e+03, 4.114359000000000378e+03, 4.177948999999999614e+03, 4.223077000000000226e+03, 1.000000000000000000e+00, 0.000000000000000000e+00, 1.000000000000000000e+02
1.050000000000000000e+02, 4.204614999999999782e+03, 4.246154000000000451e+03, 4.113845999999999549e+03, 4.167692000000000007e+03, 4.222564000000000306e+03, 1.000000000000000000e+00, 0.000000000000000000e+00, 1.000000000000000000e+02
1.060000000000000000e+02, 4.214359000000000378e+03, 4.252307999999999993e+03, 4.112307999999999993e+03, 4.168717999999999847e+03, 4.229230999999999767e+03, 1.000000000000000000e+00, 0.000000000000000000e+00, 1.000000000000000000e+02
1.070000000000000000e+02, 4.229743999999999687e+03, 4.264614999999999782e+03, 4.108204999999999927e+03, 4.178462000000000444e+03, 4.231282000000000153e+03, 1.000000000000000000e+00, 0.000000000000000000e+00, 1.000000000000000000e+02
1.080000000000000000e+02, 4.241537999999999556e+03, 4.262564000000000306e+03, 4.112820999999999913e+03, 4.185127999999999702e+03, 4.231282000000000153e+03, 1.000000000000000000e+00, 0.000000000000000000e+00, 1.000000000000000000e+02
1.090000000000000000e+02, 4.251282000000000153e+03, 4.258462000000000444e+03, 4.119487000000000080e+03, 4.182564000000000306e+03, 4.233845999999999549e+03, 1.000000000000000000e+00, 0.000000000000000000e+00, 1.000000000000000000e+02
1.100000000000000000e+02, 4.243077000000000226e+03, 4.262564000000000306e+03, 4.114872000000000298e+03, 4.177435999999999694e+03, 4.225640999999999622e+03, 1.000000000000000000e+00, 0.000000000000000000e+00, 1.000000000000000000e+02
1.110000000000000000e+02, 4.230769000000000233e+03, 4.266667000000000371e+03, 4.120512999999999920e+03, 4.178974000000000160e+03, 4.217435999999999694e+03, 1.000000000000000000e+00, 0.000000000000000000e+00, 1.000000000000000000e+02
1.120000000000000000e+02, 4.244614999999999782e+03, 4.272820999999999913e+03, 4.130769000000000233e+03, 4.185640999999999622e+03, 4.224614999999999782e+03, 1.000000000000000000e+00, 0.000000000000000000e+00, 1.000000000000000000e+02
1.130000000000000000e+02, 4.250769000000000233e+03, 4.264614999999999782e+03, 4.111795000000000073e+03, 4.182564000000000306e+03, 4.230769000000000233e+03, 1.000000000000000000e+00, 0.000000000000000000e+00, 1.000000000000000000e+02
1.140000000000000000e+02, 4.228717999999999847e+03, 4.244103000000000065e+03, 4.092307999999999993e+03, 4.167179000000000087e+03, 4.221025999999999840e+03, 1.000000000000000000e+00, 0.000000000000000000e+00, 1.000000000000000000e+02
1.150000000000000000e+02, 4.218462000000000444e+03, 4.248204999999999927e+03, 4.105127999999999702e+03, 4.166154000000000451e+03, 4.212820999999999913e+03, 1.000000000000000000e+00, 0.000000000000000000e+00, 1.000000000000000000e+02
1.160000000000000000e+02, 4.233332999999999629e+03, 4.260512999999999920e+03, 4.120512999999999920e+03, 4.180512999999999920e+03, 4.225640999999999622e+03, 1.000000000000000000e+00, 0.000000000000000000e+00, 1.000000000000000000e+02
1.170000000000000000e+02, 4.234872000000000298e+03, 4.246154000000000451e+03, 4.121025999999999840e+03, 4.187692000000000007e+03, 4.238974000000000160e+03, 1.000000000000000000e+00, 0.000000000000000000e+00, 1.000000000000000000e+02
1.180000000000000000e+02, 4.224614999999999782e+03, 4.242051000000000386e+03, 4.126154000000000451e+03, 4.185640999999999622e+03, 4.227179000000000087e+03, 1.000000000000000000e+00, 0.000000000000000000e+00, 1.000000000000000000e+02
1.190000000000000000e+02, 4.231282000000000153e+03, 4.260512999999999920e+03, 4.136922999999999774e+03, 4.185640999999999622e+03, 4.220000000000000000e+03, 1.000000000000000000e+00, 0.000000000000000000e+00, 1.000000000000000000e+02
1.200000000000000000e+02, 4.239487000000000080e+03, 4.264614999999999782e+03, 4.138974000000000160e+03, 4.185640999999999622e+03, 4.225640999999999622e+03, 1.000000000000000000e+00, 0.000000000000000000e+00, 1.000000000000000000e+02
1.210000000000000000e+02, 4.227692000000000007e+03, 4.246154000000000451e+03, 4.133332999999999629e+03, 4.184103000000000065e+03, 4.219487000000000080e+03, 1.000000000000000000e+00, 0.000000000000000000e+00, 1.000000000000000000e+02
1.220000000000000000e+02, 4.217435999999999694e+03, 4.231795000000000073e+03, 4.125640999999999622e+03, 4.184614999999999782e+03, 4.213845999999999549e+03, 1.000000000000000000e+00, 0.000000000000000000e+00, 1.000000000000000000e+02
1.230000000000000000e+02, 4.225640999999999622e+03, 4.229743999999999687e+03, 4.116922999999999774e+03, 4.185127999999999702e+03, 4.218462000000000444e+03, 1.000000000000000000e+00, 0.000000000000000000e+00, 1.000000000000000000e+02
1.240000000000000000e+02, 4.234359000000000378e+03, 4.235896999999999935e+03, 4.105127999999999702e+03, 4.185640999999999622e+03, 4.219487000000000080e+03, 1.000000000000000000e+00, 0.000000000000000000e+00, 1.000000000000000000e+02
1.250000000000000000e+02, 4.236922999999999774e+03, 4.242051000000000386e+03, 4.104103000000000065e+03, 4.187692000000000007e+03, 4.223077000000000226e+03, 1.000000000000000000e+00, 0.000000000000000000e+00, 1.000000000000000000e+02
1.260000000000000000e+02, 4.238462000000000444e+03, 4.246154000000000451e+03, 4.113845999999999549e+03, 4.183590000000000146e+03, 4.232307999999999993e+03, 1.000000000000000000e+00, 0.000000000000000000e+00, 1.000000000000000000e+02
1.270000000000000000e+02, 4.235385000000000218e+03, 4.244103000000000065e+03, 4.121537999999999556e+03, 4.184614999999999782e+03, 4.233845999999999549e+03, 1.000000000000000000e+00, 0.000000000000000000e+00, 1.000000000000000000e+02
0.000000000000000000e+00, 4.239487000000000080e+03, 4.244103000000000065e+03, 4.130769000000000233e+03, 4.192307999999999993e+03, 4.234359000000000378e+03, 1.000000000000000000e+00, 0.000000000000000000e+00, 1.000000000000000000e+02
1.000000000000000000e+00, 4.253332999999999629e+03, 4.246154000000000451e+03, 4.140000000000000000e+03, 4.188717999999999847e+03, 4.241537999999999556e+03, 1.000000000000000000e+00, 0.000000000000000000e+00, 1.000000000000000000e+02
2.000000000000000000e+00, 4.252820999999999913e+03, 4.246154000000000451e+03, 4.145127999999999702e+03, 4.184614999999999782e+03, 4.243590000000000146e+03, 1.000000000000000000e+00, 0.000000000000000000e+00, 1.000000000000000000e+02
3.000000000000000000e+00, 4.251795000000000073e+03, 4.252307999999999993e+03, 4.154359000000000378e+03, 4.197948999999999614e+03, 4.242051000000000386e+03, 1.000000000000000000e+00, 0.000000000000000000e+00, 1.000000000000000000e+02
4.000000000000000000e+00, 4.266154000000000451e+03, 4.262564000000000306e+03, 4.161025999999999840e+03, 4.202564000000000306e+03, 4.248717999999999847e+03, 1.000000000000000000e+00, 0.000000000000000000e+00, 1.000000000000000000e+02
5.000000000000000000e+00, 4.270256000000000313e+03, 4.258462000000000444e+03, 4.145640999999999622e+03, 4.186667000000000371e+03, 4.245127999999999702e+03, 1.000000000000000000e+00, 0.000000000000000000e+00, 1.000000000000000000e+02
6.000000000000000000e+00, 4.258462000000000444e+03, 4.246154000000000451e+03, 4.125127999999999702e+03, 4.183077000000000226e+03, 4.228204999999999927e+03, 1.000000000000000000e+00, 0.000000000000000000e+00, 1.000000000000000000e+02
7.000000000000000000e+00, 4.249743999999999687e+03, 4.244103000000000065e+03, 4.122051000000000386e+03, 4.190256000000000313e+03, 4.224103000000000065e+03, 1.000000000000000000e+00, 0.000000000000000000e+00, 1.000000000000000000e+02
8.000000000000000000e+00, 4.245640999999999622e+03, 4.248204999999999927e+03, 4.120512999999999920e+03, 4.190256000000000313e+03, 4.225640999999999622e+03, 1.000000000000000000e+00, 0.000000000000000000e+00, 1.000000000000000000e+02
9.000000000000000000e+00, 4.253845999999999549e+03, 4.246154000000000451e+03, 4.120000000000000000e+03, 4.195385000000000218e+03, 4.227692000000000007e+03, 1.000000000000000000e+00, 0.000000000000000000e+00, 1.000000000000000000e+02
1.000000000000000000e+01, 4.264614999999999782e+03, 4.244103000000000065e+03, 4.128717999999999847e+03, 4.203590000000000146e+03, 4.236409999999999854e+03, 1.000000000000000000e+00, 0.000000000000000000e+00, 1.000000000000000000e+02
1.100000000000000000e+01, 4.265127999999999702e+03, 4.244103000000000065e+03, 4.131795000000000073e+03, 4.201537999999999556e+03, 4.238974000000000160e+03, 1.000000000000000000e+00, 0.000000000000000000e+00, 1.000000000000000000e+02
1.200000000000000000e+01, 4.261025999999999840e+03, 4.242051000000000386e+03, 4.122564000000000306e+03, 4.189230999999999767e+03, 4.223077000000000226e+03, 1.000000000000000000e+00, 0.000000000000000000e+00, 1.000000000000000000e+02
1.300000000000000000e+01, 4.255896999999999935e+03, 4.240000000000000000e+03, 4.118462000000000444e+03, 4.179487000000000080e+03, 4.206667000000000371e+03, 1.000000000000000000e+00, 0.000000000000000000e+00, 1.000000000000000000e+02
1.400000000000000000e+01, 4.264614999999999782e+03, 4.242051000000000386e+03, 4.128204999999999927e+03, 4.189230999999999767e+03, 4.221025999999999840e+03, 1.000000000000000000e+00, 0.000000000000000000e+00, 1.000000000000000000e+02
1.500000000000000000e+01, 4.286667000000000371e+03, 4.248204999999999927e+03, 4.140000000000000000e+03, 4.204614999999999782e+03, 4.246667000000000371e+03, 1.000000000000000000e+00, 0.000000000000000000e+00, 1.000000000000000000e+02
1.600000000000000000e+01, 4.283590000000000146e+03, 4.248204999999999927e+03, 4.136409999999999854e+03, 4.194872000000000298e+03, 4.242051000000000386e+03, 1.000000000000000000e+00, 0.000000000000000000e+00, 1.000000000000000000e+02
1.700000000000000000e+01, 4.261537999999999556e+03, 4.235896999999999935e+03, 4.125640999999999622e+03, 4.182564000000000306e+03, 4.220000000000000000e+03, 1.000000000000000000e+00, 0.000000000000000000e+00, 1.000000000000000000e+02
1.800000000000000000e+01, 4.253332999999999629e+03, 4.225640999999999622e+03, 4.120512999999999920e+03, 4.181025999999999840e+03, 4.209743999999999687e+03, 1.000000000000000000e+00, 0.000000000000000000e+00, 1.000000000000000000e+02
1.900000000000000000e+01, 4.252307999999999993e+03, 4.225640999999999622e+03, 4.112820999999999913e+03, 4.168717999999999847e+03, 4.204614999999999782e+03, 1.000000000000000000e+00, 0.000000000000000000e+00, 1.000000000000000000e+02
2.000000000000000000e+01, 4.260512999999999920e+03, 4.227692000000000007e+03, 4.111795000000000073e+03, 4.168717999999999847e+03, 4.203077000000000226e+03, 1.000000000000000000e+00, 0.000000000000000000e+00, 1.000000000000000000e+02
2.100000000000000000e+01, 4.274359000000000378e+03, 4.229743999999999687e+03, 4.120512999999999920e+03, 4.184614999999999782e+03, 4.215385000000000218e+03, 1.000000000000000000e+00, 0.000000000000000000e+00, 1.000000000000000000e+02
2.200000000000000000e+01, 4.260512999999999920e+03, 4.231795000000000073e+03, 4.123590000000000146e+03, 4.179487000000000080e+03, 4.213332999999999629e+03, 1.000000000000000000e+00, 0.000000000000000000e+00, 1.000000000000000000e+02
2.300000000000000000e+01, 4.238462000000000444e+03, 4.229743999999999687e+03, 4.124103000000000065e+03, 4.166667000000000371e+03, 4.192820999999999913e+03, 1.000000000000000000e+00, 0.000000000000000000e+00, 1.000000000000000000e+02
2.400000000000000000e+01, 4.252307999999999993e+03, 4.229743999999999687e+03, 4.136409999999999854e+03, 4.178974000000000160e+03, 4.196409999999999854e+03, 1.000000000000000000e+00, 0.000000000000000000e+00, 1.000000000000000000e+02
2.500000000000000000e+01, 4.269743999999999687e+03, 4.233845999999999549e+03, 4.149230999999999767e+03, 4.189743999999999687e+03, 4.211795000000000073e+03, 1.000000000000000000e+00, 0.000000000000000000e+00, 1.000000000000000000e+02
2.600000000000000000e+01, 4.262051000000000386e+03, 4.240000000000000000e+03, 4.147179000000000087e+03, 4.182564000000000306e+03, 4.207179000000000087e+03, 1.000000000000000000e+00, 0.000000000000000000e+00, 1.000000000000000000e+02
2.700000000000000000e+01, 4.258974000000000160e+03, 4.240000000000000000e+03, 4.144103000000000065e+03, 4.178974000000000160e+03, 4.208204999999999927e+03, 1.000000000000000000e+00, 0.000000000000000000e+00, 1.000000000000000000e+02
2.800000000000000000e+01, 4.267179000000000087e+03, 4.231795000000000073e+03, 4.138974000000000160e+03, 4.183590000000000146e+03, 4.219487000000000080e+03, 1.000000000000000000e+00, 0.000000000000000000e+00, 1.000000000000000000e+02
2.900000000000000000e+01, 4.275896999999999935e+03, 4.231795000000000073e+03, 4.133845999999999549e+03, 4.187692000000000007e+03, 4.224103000000000065e+03, 1.000000000000000000e+00, 0.000000000000000000e+00, 1.000000000000000000e+02
3.000000000000000000e+01, 4.280000000000000000e+03, 4.235896999999999935e+03, 4.134872000000000298e+03, 4.190256000000000313e+03, 4.222051000000000386e+03, 1.000000000000000000e+00, 0.000000000000000000e+00, 1.000000000000000000e+02
3.100000000000000000e+01, 4.280000000000000000e+03, 4.233845999999999549e+03, 4.135385000000000218e+03, 4.189230999999999767e+03, 4.214359000000000378e+03, 1.000000000000000000e+00, 0.000000000000000000e+00, 1.000000000000000000e+02
3.200000000000000000e+01, 4.281025999999999840e+03, 4.229743999999999687e+03, 4.126667000000000371e+03, 4.184614999999999782e+03, 4.213332999999999629e+03, 1.000000000000000000e+00, 0.000000000000000000e+00, 1.000000000000000000e+02
3.300000000000000000e+01, 4.282564000000000306e+03, 4.235896999999999935e+03, 4.116409999999999854e+03, 4.179487000000000080e+03, 4.217948999999999614e+03, 1.000000000000000000e+00, 0.000000000000000000e+00, 1.000000000000000000e+02
3.400000000000000000e+01, 4.283077000000000226e+03, 4.233845999999999549e+03, 4.121537999999999556e+03, 4.187692000000000007e+03, 4.215896999999999935e+03, 1.000000000000000000e+00, 0.000000000000000000e+00, 1.000000000000000000e+02
3.500000000000000000e+01, 4.287179000000000087e+03, 4.231795000000000073e+03, 4.133845999999999549e+03, 4.193332999999999629e+03, 4.209230999999999767e+03, 1.000000000000000000e+00, 1.000000000000000000e+00, 1.000000000000000000e+02
3.600000000000000000e+01, 4.288717999999999847e+03, 4.235896999999999935e+03, 4.138462000000000444e+03, 4.186667000000000371e+03, 4.206667000000000371e+03, 1.000000000000000000e+00, 1.000000000000000000e+00, 1.000000000000000000e+02
3.700000000000000000e+01, 4.284103000000000065e+03, 4.235896999999999935e+03, 4.141025999999999840e+03, 4.190256000000000313e+03, 4.212820999999999913e+03, 1.000000000000000000e+00, 1.000000000000000000e+00, 1.000000000000000000e+02
3.800000000000000000e+01, 4.280512999999999920e+03, 4.229743999999999687e+03, 4.142051000000000386e+03, 4.195896999999999935e+03, 4.221025999999999840e+03, 1.000000000000000000e+00, 1.000000000000000000e+00, 1.000000000000000000e+02
3.900000000000000000e+01, 4.277948999999999614e+03, 4.231795000000000073e+03, 4.139487000000000080e+03, 4.190769000000000233e+03, 4.230256000000000313e+03, 1.000000000000000000e+00, 1.000000000000000000e+00, 1.000000000000000000e+02
4.000000000000000000e+01, 4.273332999999999629e+03, 4.231795000000000073e+03, 4.137435999999999694e+03, 4.188717999999999847e+03, 4.231795000000000073e+03, 1.000000000000000000e+00, 1.000000000000000000e+00, 1.000000000000000000e+02
4.100000000000000000e+01, 4.261537999999999556e+03, 4.217435999999999694e+03, 4.136409999999999854e+03, 4.181537999999999556e+03, 4.218462000000000444e+03, 1.000000000000000000e+00, 1.000000000000000000e+00, 1.000000000000000000e+02
4.200000000000000000e+01, 4.246667000000000371e+03, 4.215385000000000218e+03, 4.127179000000000087e+03, 4.168204999999999927e+03, 4.201537999999999556e+03, 1.000000000000000000e+00, 1.000000000000000000e+00, 1.000000000000000000e+02
